time (s)	coil I (A)	last det (V)	int current (uC)
4832.271827	1.046360	0.533273	462.491089
4832.272741	1.465283	0.533273	1801.759888
4832.273639	1.451016	0.533273	3104.771973
4832.274599	1.413820	0.533273	4462.038574
4832.275511	1.377990	0.533273	5718.765137
4832.276420	0.988865	0.533273	6617.643066
4832.277368	0.113328	0.533273	6725.077637
4832.278275	0.091564	0.533273	6808.125977
4832.279175	0.091681	0.533273	6890.638672
4832.280063	0.091630	0.533273	6972.005859
4832.280988	0.091692	0.533273	7056.820801
4832.281898	0.091648	0.533273	7140.220215
4832.282796	0.091630	0.533273	7222.503418
4832.283713	0.091685	0.533273	7306.578125
4832.284629	0.091703	0.533273	7390.578125
4832.285534	0.091666	0.533273	7473.536133
4833.369545	1.031920	0.530957	450.949127
4833.370484	1.464639	0.530957	1826.244873
4833.371399	1.450009	0.530957	3153.002930
4833.372299	1.414830	0.530957	4426.350098
4833.373194	1.379377	0.530957	5660.892578
4833.374162	0.971550	0.530957	6601.353516
4833.375058	0.113104	0.530957	6702.694824
4833.375961	0.091505	0.530957	6785.323730
4833.376857	0.091630	0.530957	6867.423828
4833.377796	0.091652	0.530957	6953.484863
4833.378704	0.091505	0.530957	7036.571289
4833.379596	0.091641	0.530957	7118.314941
4833.380524	0.091633	0.530957	7203.350586
4833.381420	0.091644	0.530957	7285.463867
4833.382317	0.091578	0.530957	7367.609863
4833.383208	0.091619	0.530957	7449.242187
4834.380752	1.041830	0.629240	461.530609
4834.381732	1.466895	0.629240	1899.087280
4834.382640	1.448350	0.629240	3214.188721
4834.383538	1.413116	0.629240	4483.166992
4834.384497	1.376371	0.629240	5803.106445
4834.385416	0.881210	0.629240	6612.937988
4834.386336	0.103147	0.629240	6707.833008
4834.387247	0.091523	0.629240	6791.210937
4834.388198	0.091619	0.629240	6878.340332
4834.389098	0.091578	0.629240	6960.760742
4834.389986	0.091619	0.629240	7042.118164
4834.390914	0.091696	0.629240	7127.211426
4834.391818	0.091622	0.629240	7210.038086
4834.392718	0.091648	0.629240	7292.521484
4834.393607	0.091611	0.629240	7373.963867
4834.394552	0.091739	0.629240	7460.657715
4835.442144	1.039812	0.428948	472.074646
4835.443049	1.465258	0.428948	1798.132812
4835.443940	1.450909	0.428948	3090.893066
4835.444892	1.413853	0.428948	4436.880859
4835.445811	1.378242	0.428948	5703.485352
4835.446717	1.001818	0.428948	6611.131836
4835.447645	0.117729	0.428948	6720.384766
4835.448580	0.091534	0.428948	6805.969238
4835.449483	0.091538	0.428948	6888.627930
4835.450373	0.091652	0.428948	6970.197754
4835.451320	0.091674	0.428948	7057.012695
4835.452227	0.091615	0.428948	7140.107422
4835.453118	0.091659	0.428948	7221.775391
4835.454055	0.091688	0.428948	7307.687500
4835.454966	0.091538	0.428948	7391.078613
4835.455869	0.091600	0.428948	7473.793945
4836.464076	1.052952	0.486210	466.457611
4836.465062	1.467059	0.486210	1912.978027
4836.465974	1.447742	0.486210	3233.318359
4836.466875	1.412281	0.486210	4505.784180
4836.467821	1.375840	0.486210	5807.328613
4836.468749	0.891980	0.486210	6635.085937
4836.469640	0.105608	0.486210	6729.182617
4836.470594	0.091560	0.486210	6816.530762
4836.471495	0.091578	0.486210	6899.042969
4836.472393	0.091575	0.486210	6981.276855
4836.473283	0.091586	0.486210	7062.788086
4836.474229	0.091597	0.486210	7149.438477
4836.475146	0.091586	0.486210	7233.422363
4836.476047	0.091604	0.486210	7315.957520
4836.476940	0.091575	0.486210	7397.733887
4836.477890	0.091644	0.486210	7484.795898
4837.537249	1.056013	0.538965	473.093933
4837.538177	1.465430	0.538965	1833.012695
4837.539074	1.450038	0.538965	3133.696777
4837.540012	1.413918	0.538965	4459.952148
4837.540923	1.378004	0.538965	5715.313965
4837.541838	0.984957	0.538965	6616.549805
4837.542726	0.116448	0.538965	6719.955566
4837.543689	0.091611	0.538965	6808.177246
4837.544584	0.091685	0.538965	6890.234863
4837.545488	0.091578	0.538965	6973.021484
4837.546380	0.091567	0.538965	7054.699707
4837.547312	0.091718	0.538965	7140.180664
4837.548215	0.091652	0.538965	7222.941895
4837.549103	0.091681	0.538965	7304.354492
4837.550033	0.091739	0.538965	7389.672363
4837.550946	0.091772	0.538965	7473.460449
4838.547938	1.048319	0.566805	472.791901
4838.548842	1.465005	0.566805	1797.156372
4838.549781	1.449957	0.566805	3158.666260
4838.550713	1.413069	0.566805	4475.646484
4838.551626	1.377327	0.566805	5733.145508
4838.552531	0.984031	0.566805	6623.693359
4838.553461	0.111445	0.566805	6727.337402
4838.554371	0.091469	0.566805	6810.573730
4838.555276	0.091633	0.566805	6893.501953
4838.556167	0.091564	0.566805	6975.085449
4838.557119	0.091575	0.566805	7062.264648
4838.558023	0.091553	0.566805	7145.028320
4838.558923	0.091571	0.566805	7227.442383
4838.559851	0.091604	0.566805	7312.450684
4838.560747	0.091644	0.566805	7394.563965
4838.561653	0.091560	0.566805	7477.517578
4839.642069	1.043540	0.528697	468.549469
4839.642967	1.464818	0.528697	1783.956055
4839.643914	1.450419	0.528697	3157.502441
4839.644838	1.413472	0.528697	4463.550293
4839.645745	1.377766	0.528697	5713.184082
4839.646652	0.952800	0.528697	6577.374023
4839.647605	0.108186	0.528697	6680.475098
4839.648499	0.091450	0.528697	6762.231445
4839.649387	0.091578	0.528697	6843.553223
4839.650329	0.091666	0.528697	6929.902832
4839.651236	0.091509	0.528697	7012.901367
4839.652137	0.091582	0.528697	7095.416992
4839.653030	0.091600	0.528697	7177.216309
4839.653970	0.091714	0.528697	7263.427246
4839.654874	0.091582	0.528697	7346.217285
4839.655764	0.091589	0.528697	7427.731934
4840.652751	1.049612	0.590221	463.928406
4840.653725	1.466682	0.590221	1892.476807
4840.654640	1.448229	0.590221	3217.606201
4840.655536	1.412750	0.590221	4483.430664
4840.656474	1.376689	0.590221	5774.765625
4840.657396	0.925030	0.590221	6627.643555
4840.658303	0.107047	0.590221	6724.735352
4840.659192	0.091476	0.590221	6806.057129
4840.660133	0.091732	0.590221	6892.376953
4840.661033	0.091644	0.590221	6974.856934
4840.661932	0.091586	0.590221	7057.192383
4840.662836	0.091593	0.590221	7139.992676
4840.663754	0.091743	0.590221	7224.212891
4840.664663	0.091681	0.590221	7307.550781
4840.665553	0.091644	0.590221	7389.114258
4840.666477	0.091600	0.590221	7473.752930
4841.735628	1.037860	0.550897	459.772034
4841.736600	1.466624	0.550897	1885.330078
4841.737521	1.447961	0.550897	3218.902588
4841.738429	1.412106	0.550897	4501.094727
4841.739326	1.376642	0.550897	5735.942383
4841.740283	0.910408	0.550897	6607.202637
4841.741198	0.105637	0.550897	6703.860840
4841.742092	0.091494	0.550897	6785.656738
4841.743024	0.091674	0.550897	6871.096680
4841.743928	0.091644	0.550897	6953.943359
4841.744831	0.091611	0.550897	7036.668457
4841.745719	0.091575	0.550897	7117.986816
4841.746675	0.091718	0.550897	7205.668945
4841.747572	0.091564	0.550897	7287.801758
4841.748469	0.091659	0.550897	7370.020020
4841.749373	0.091545	0.550897	7452.776855
4842.758604	1.032345	0.606101	451.134735
4842.759546	1.464353	0.606101	1830.555420
4842.760473	1.448881	0.606101	3173.667969
4842.761384	1.413124	0.606101	4461.023926
4842.762282	1.377806	0.606101	5698.293945
4842.763252	0.932655	0.606101	6602.969238
4842.764161	0.107856	0.606101	6701.010742
4842.765065	0.091531	0.606101	6783.754395
4842.765979	0.091663	0.606101	6867.534180
4842.766895	0.091611	0.606101	6951.450195
4842.767800	0.091498	0.606101	7034.255859
4842.768688	0.091527	0.606101	7115.531738
4842.769628	0.091703	0.606101	7201.732422
4842.770531	0.091600	0.606101	7284.447754
4842.771435	0.091604	0.606101	7367.257812
4842.772328	0.091476	0.606101	7448.945801
4843.815374	1.034220	0.600562	457.125183
4843.816353	1.466092	0.600562	1892.429687
4843.817263	1.448298	0.600562	3210.381348
4843.818166	1.412494	0.600562	4485.863281
4843.819061	1.376821	0.600562	5718.118164
4843.820035	0.905958	0.600562	6600.521484
4843.820948	0.105249	0.600562	6696.613770
4843.821843	0.091586	0.600562	6778.583008
4843.822758	0.091685	0.600562	6862.474609
4843.823664	0.091641	0.600562	6945.500977
4843.824567	0.091622	0.600562	7028.235840
4843.825462	0.091553	0.600562	7110.175781
4843.826412	0.091681	0.600562	7197.272461
4843.827311	0.091626	0.600562	7279.644043
4843.828206	0.091571	0.600562	7361.600098
4843.829092	0.091538	0.600562	7442.702637
4844.834771	1.040156	0.693391	464.949829
4844.835666	1.464111	0.693391	1775.329468
4844.836633	1.449122	0.693391	3176.630859
4844.837544	1.412970	0.693391	4463.846680
4844.838448	1.377795	0.693391	5709.373535
4844.839391	0.956979	0.693391	6611.804687
4844.840290	0.110958	0.693391	6711.556152
4844.841193	0.091534	0.693391	6794.211914
4844.842083	0.091648	0.693391	6875.778809
4844.843032	0.091663	0.693391	6962.766602
4844.843943	0.091582	0.693391	7046.197754
4844.844837	0.091597	0.693391	7128.084961
4844.845731	0.091670	0.693391	7210.038086
4844.846642	0.091666	0.693391	7293.545898
4844.847571	0.091622	0.693391	7378.663086
4844.848478	0.091630	0.693391	7461.770996
4845.936080	1.040911	0.643162	462.164307
4845.937067	1.467155	0.643162	1910.245972
4845.937981	1.447039	0.643162	3232.839355
4845.938910	1.410919	0.643162	4543.583008
4845.939809	1.375356	0.643162	5780.028320
4845.940776	0.856857	0.643162	6608.608887
4845.941674	0.102748	0.643162	6700.876465
4845.942561	0.091578	0.643162	6782.106445
4845.943497	0.091670	0.643162	6867.909668
4845.944398	0.091604	0.643162	6950.444824
4845.945308	0.091692	0.643162	7033.884277
4845.946242	0.091696	0.643162	7119.527832
4845.947147	0.091545	0.643162	7202.376465
4845.948049	0.091615	0.643162	7285.013184
4845.948939	0.091589	0.643162	7366.527832
4845.949891	0.091685	0.643162	7453.811523
4846.950355	1.053486	0.784153	473.015381
4846.951265	1.465188	0.784153	1806.336426
4846.952172	1.450074	0.784153	3121.553955
4846.953121	1.413344	0.784153	4462.816895
4846.954035	1.377550	0.784153	5721.897461
4846.954941	0.989645	0.784153	6618.515625
4846.955874	0.114089	0.784153	6724.960937
4846.956780	0.091545	0.784153	6807.900879
4846.957680	0.091644	0.784153	6890.380859
4846.958567	0.091611	0.784153	6971.640137
4846.959520	0.091666	0.784153	7058.998047
4846.960431	0.091666	0.784153	7142.505859
4846.961326	0.091586	0.784153	7224.475098
4846.962236	0.091644	0.784153	7307.871582
4846.963158	0.091710	0.784153	7392.428223
4846.964066	0.091626	0.784153	7475.624512
4848.003537	1.040603	0.521418	460.987152
4848.004434	1.464251	0.521418	1774.419922
4848.005329	1.450869	0.521418	3072.947754
4848.006294	1.413845	0.521418	4437.308594
4848.007217	1.377803	0.521418	5709.020508
4848.008123	0.995607	0.521418	6611.040039
4848.009063	0.115016	0.521418	6719.154785
4848.009968	0.091589	0.521418	6802.042969
4848.010869	0.091582	0.521418	6884.558594
4848.011758	0.091564	0.521418	6965.958984
4848.012699	0.091699	0.521418	7052.248047
4848.013603	0.091630	0.521418	7135.081055
4848.014495	0.091637	0.521418	7216.821289
4848.015401	0.091589	0.521418	7299.801270
4848.016337	0.091648	0.521418	7385.583984
4848.017243	0.091553	0.521418	7468.530762
4849.035211	1.046338	0.610488	462.481323
4849.036183	1.466547	0.610488	1887.964722
4849.037102	1.448350	0.610488	3218.998047
4849.037997	1.412681	0.610488	4483.347168
4849.038930	1.376536	0.610488	5767.654785
4849.039864	0.913821	0.610488	6621.163574
4849.040767	0.106659	0.610488	6717.476562
4849.041658	0.091644	0.610488	6799.131836
4849.042595	0.091685	0.610488	6885.040039
4849.043499	0.091729	0.610488	6967.962402
4849.044403	0.091707	0.610488	7050.865234
4849.045306	0.091685	0.610488	7133.656250
4849.046224	0.091714	0.610488	7217.849609
4849.047130	0.091670	0.610488	7300.902344
4849.048024	0.091663	0.610488	7382.848633
4849.048910	0.091633	0.610488	7464.035645
4850.106866	1.064202	0.654219	493.789581
4850.107769	1.465287	0.654219	1816.943604
4850.108724	1.448990	0.654219	3200.729492
4850.109632	1.412633	0.654219	4483.400391
4850.110534	1.377440	0.654219	5725.851562
4850.111442	0.980929	0.654219	6616.535156
4850.112373	0.109735	0.654219	6718.698730
4850.113284	0.091545	0.654219	6802.096680
4850.114189	0.091637	0.654219	6885.028320
4850.115075	0.091655	0.654219	6966.234863
4850.116020	0.091677	0.654219	7052.869629
4850.116925	0.091626	0.654219	7135.791016
4850.117819	0.091556	0.654219	7217.642578
4850.118762	0.091626	0.654219	7304.045898
4850.119663	0.091739	0.654219	7386.703125
4850.120559	0.091589	0.654219	7468.767090
4851.121618	1.040442	0.781196	459.875305
4851.122514	1.464002	0.781196	1771.620605
4851.123490	1.448536	0.781196	3185.392090
4851.124400	1.412589	0.781196	4470.848145
4851.125300	1.377554	0.781196	5710.646484
4851.126252	0.946985	0.781196	6612.175781
4851.127165	0.110343	0.781196	6712.918945
4851.128081	0.091498	0.781196	6796.730957
4851.128971	0.091633	0.781196	6878.284668
4851.129909	0.091534	0.781196	6964.144043
4851.130813	0.091560	0.781196	7046.914551
4851.131704	0.091571	0.781196	7128.504395
4851.132640	0.091648	0.781196	7214.287109
4851.133547	0.091516	0.781196	7297.291992
4851.134449	0.091604	0.781196	7379.918945
4851.135336	0.091670	0.781196	7461.229980
4852.204520	1.074774	0.546365	505.143860
4852.205422	1.465539	0.546365	1827.060547
4852.206370	1.448569	0.546365	3200.304199
4852.207287	1.412322	0.546365	4495.403320
4852.208182	1.377374	0.546365	5728.153320
4852.209143	0.923148	0.546365	6615.298828
4852.210052	0.107479	0.546365	6712.997559
4852.210948	0.091483	0.546365	6794.966309
4852.211835	0.091608	0.546365	6876.222168
4852.212785	0.091666	0.546365	6963.305176
4852.213678	0.091560	0.546365	7045.068359
4852.214571	0.091586	0.546365	7126.854492
4852.215488	0.091586	0.546365	7210.838379
4852.216402	0.091582	0.546365	7294.544434
4852.217303	0.091549	0.546365	7377.030273
4852.218193	0.091575	0.546365	7458.531738
4853.217240	1.047250	0.665672	472.309601
4853.218132	1.464053	0.665672	1778.244629
4853.219095	1.449104	0.665672	3173.731689
4853.220008	1.413076	0.665672	4463.870117
4853.220907	1.377817	0.665672	5702.527832
4853.221858	0.954855	0.665672	6610.594727
4853.222765	0.109958	0.665672	6710.327148
4853.223665	0.091465	0.665672	6792.645508
4853.224556	0.091611	0.665672	6874.270996
4853.225508	0.091626	0.665672	6961.499023
4853.226408	0.091641	0.665672	7043.975586
4853.227310	0.091611	0.665672	7126.608887
4853.228202	0.091600	0.665672	7208.316406
4853.229143	0.091710	0.665672	7294.615723
4853.230044	0.091622	0.665672	7377.167480
4853.230943	0.091527	0.665672	7459.450195
4854.301698	1.069358	0.632043	527.193481
4854.302617	1.466547	0.632043	1874.949829
4854.303524	1.448291	0.632043	3188.549805
4854.304423	1.412878	0.632043	4458.727539
4854.305374	1.375876	0.632043	5767.186035
4854.306303	0.909423	0.632043	6612.039551
4854.307201	0.106487	0.632043	6707.664551
4854.308101	0.091571	0.632043	6790.078613
4854.309040	0.091633	0.632043	6876.122070
4854.309950	0.091575	0.632043	6959.455078
4854.310842	0.091575	0.632043	7041.139648
4854.311769	0.091633	0.632043	7126.083496
4854.312682	0.091710	0.632043	7209.814941
4854.313584	0.091615	0.632043	7292.451660
4854.314475	0.091655	0.632043	7374.116699
4854.315424	0.091772	0.632043	7461.208984
4855.317461	1.051154	0.696247	473.019104
4855.318438	1.465796	0.696247	1905.101562
4855.319348	1.447588	0.696247	3222.406494
4855.320255	1.411959	0.696247	4503.053711
4855.321150	1.376803	0.696247	5735.292480
4855.322111	0.908485	0.696247	6608.346680
4855.323022	0.105835	0.696247	6704.762207
4855.323921	0.091487	0.696247	6787.008789
4855.324848	0.091615	0.696247	6871.936035
4855.325756	0.091652	0.696247	6955.155762
4855.326653	0.091487	0.696247	7037.219238
4855.327542	0.091571	0.696247	7118.625977
4855.328496	0.091567	0.696247	7205.981445
4855.329400	0.091688	0.696247	7288.867676
4855.330305	0.091575	0.696247	7371.742676
4855.331193	0.091611	0.696247	7453.093750
4856.392707	1.060349	0.703768	520.631409
4856.393620	1.465917	0.703768	1859.013428
4856.394556	1.447379	0.703768	3213.760254
4856.395447	1.411600	0.703768	4471.496094
4856.396409	1.374939	0.703768	5794.187500
4856.397332	0.888303	0.703768	6614.091309
4856.398224	0.105172	0.703768	6707.904785
4856.399174	0.091454	0.703768	6794.786133
4856.400083	0.091589	0.703768	6878.041016
4856.401000	0.091553	0.703768	6961.995117
4856.401892	0.091560	0.703768	7043.666504
4856.402824	0.091531	0.703768	7128.973145
4856.403726	0.091531	0.703768	7211.533691
4856.404618	0.091542	0.703768	7293.188965
4856.405547	0.091556	0.703768	7378.244629
4856.406477	0.091630	0.703768	7463.459961
4857.410515	1.043950	0.750347	464.557831
4857.411466	1.464423	0.750347	1857.223755
4857.412375	1.448884	0.750347	3174.259521
4857.413277	1.413384	0.750347	4449.131836
4857.414170	1.378176	0.750347	5679.843262
4857.415127	0.965673	0.750347	6603.992187
4857.416029	0.112207	0.750347	6705.203125
4857.416923	0.091399	0.750347	6786.913574
4857.417836	0.091549	0.750347	6870.498047
4857.418766	0.091655	0.750347	6955.737305
4857.419670	0.091520	0.750347	7038.471191
4857.420565	0.091593	0.750347	7120.446777
4857.421504	0.091641	0.750347	7206.497559
4857.422404	0.091586	0.750347	7288.924805
4857.423301	0.091586	0.750347	7371.077148
4857.424184	0.091560	0.750347	7451.924805
4858.489307	1.055087	0.702181	480.064423
4858.490204	1.464954	0.702181	1794.127930
4858.491139	1.449866	0.702181	3149.752441
4858.492055	1.413461	0.702181	4444.482422
4858.492979	1.377671	0.702181	5717.450195
4858.493883	0.988553	0.702181	6611.102539
4858.494820	0.111541	0.702181	6715.616211
4858.495723	0.091509	0.702181	6798.248535
4858.496624	0.091626	0.702181	6880.803711
4858.497510	0.091582	0.702181	6961.945312
4858.498449	0.091641	0.702181	7047.996094
4858.499354	0.091644	0.702181	7130.934082
4858.500248	0.091501	0.702181	7212.736328
4858.501181	0.091681	0.702181	7298.274414
4858.502086	0.091637	0.702181	7381.206055
4858.502992	0.091597	0.702181	7464.192871
4859.510738	1.040101	0.760430	461.804962
4859.511692	1.466038	0.760430	1860.404785
4859.512608	1.448379	0.760430	3187.119873
4859.513507	1.413051	0.760430	4457.452148
4859.514454	1.376847	0.760430	5761.326172
4859.515380	0.929246	0.760430	6621.807617
4859.516273	0.108739	0.760430	6718.911621
4859.517170	0.091472	0.760430	6800.961914
4859.518096	0.091567	0.760430	6885.753418
4859.518999	0.091593	0.760430	6968.461914
4859.519903	0.091571	0.760430	7051.242187
4859.520793	0.091575	0.760430	7132.743652
4859.521744	0.091637	0.760430	7219.890625
4859.522651	0.091567	0.760430	7302.942383
4859.523541	0.091608	0.760430	7384.473145
4859.524484	0.091622	0.760430	7470.873047
4860.579801	1.047964	0.714672	467.391876
4860.580707	1.464756	0.714672	1794.460693
4860.581603	1.449789	0.714672	3093.471436
4860.582582	1.412465	0.714672	4476.274414
4860.583489	1.377026	0.714672	5725.237305
4860.584391	0.986627	0.714672	6615.174805
4860.585327	0.114408	0.714672	6722.260742
4860.586243	0.091501	0.714672	6806.076172
4860.587141	0.091608	0.714672	6888.339844
4860.588083	0.091571	0.714672	6974.599609
4860.588988	0.091549	0.714672	7057.451660
4860.589893	0.091505	0.714672	7140.263672
4860.590782	0.091549	0.714672	7221.650879
4860.591716	0.091593	0.714672	7307.198730
4860.592622	0.091479	0.714672	7390.079102
4860.593527	0.091648	0.714672	7473.020508
4861.610445	1.035820	0.779766	456.796783
4861.611400	1.465778	0.779766	1856.614380
4861.612309	1.448881	0.779766	3173.646973
4861.613210	1.413311	0.779766	4447.040039
4861.614136	1.377737	0.779766	5722.824219
4861.615071	0.955463	0.779766	6616.181641
4861.615984	0.109329	0.779766	6715.998535
4861.616887	0.091479	0.779766	6798.604492
4861.617832	0.091692	0.779766	6885.253418
4861.618734	0.091622	0.779766	6967.896973
4861.619633	0.091641	0.779766	7050.281738
4861.620521	0.091531	0.779766	7131.561035
4861.621466	0.091637	0.779766	7218.158203
4861.622367	0.091593	0.779766	7300.683594
4861.623263	0.091630	0.779766	7382.783691
4861.624190	0.091637	0.779766	7467.730957
4862.670284	1.036465	0.759367	458.117432
4862.671253	1.466243	0.759367	1878.906616
4862.672170	1.448306	0.759367	3207.002930
4862.673067	1.412670	0.759367	4474.167480
4862.673982	1.376748	0.759367	5733.892090
4862.674924	0.931959	0.759367	6611.797852
4862.675833	0.107864	0.759367	6709.846191
4862.676737	0.091465	0.759367	6792.530273
4862.677676	0.091549	0.759367	6878.494629
4862.678578	0.091630	0.759367	6961.144531
4862.679482	0.091578	0.759367	7043.931152
4862.680372	0.091534	0.759367	7125.396973
4862.681323	0.091608	0.759367	7212.515625
4862.682232	0.091571	0.759367	7295.753906
4862.683122	0.091589	0.759367	7377.268555
4862.684043	0.091608	0.759367	7461.639160
4863.697357	1.036080	0.845363	454.839264
4863.698306	1.465928	0.845363	1846.004639
4863.699226	1.448705	0.845363	3178.812988
4863.700122	1.413549	0.845363	4445.352539
4863.701059	1.377305	0.845363	5735.886719
4863.701997	0.936258	0.845363	6614.097168
4863.702904	0.107882	0.845363	6711.946289
4863.703798	0.091556	0.845363	6793.797852
4863.704753	0.091644	0.845363	6881.318359
4863.705660	0.091600	0.845363	6964.399902
4863.706558	0.091611	0.845363	7046.666992
4863.707445	0.091586	0.845363	7127.903320
4863.708377	0.091674	0.845363	7213.343262
4863.709285	0.091556	0.845363	7296.476562
4863.710175	0.091582	0.845363	7377.984375
4863.711101	0.091626	0.845363	7462.830078
4864.773587	1.046290	0.714261	463.506592
4864.774576	1.466792	0.714261	1914.163818
4864.775495	1.447104	0.714261	3244.052734
4864.776393	1.411644	0.714261	4511.709473
4864.777343	1.375360	0.714261	5818.301758
4864.778262	0.897052	0.714261	6642.692383
4864.779165	0.105216	0.714261	6737.702637
4864.780052	0.091553	0.714261	6818.910156
4864.780986	0.091586	0.714261	6904.451172
4864.781887	0.091633	0.714261	6987.012695
4864.782797	0.091531	0.714261	7070.305664
4864.783688	0.091549	0.714261	7151.875977
4864.784635	0.091666	0.714261	7238.684082
4864.785538	0.091549	0.714261	7321.353027
4864.786431	0.091516	0.714261	7403.077148
4864.787366	0.091630	0.714261	7488.750977
4865.801699	1.063022	0.870943	486.864288
4865.802604	1.465155	0.870943	1812.829590
4865.803495	1.449924	0.870943	3104.711914
4865.804447	1.412908	0.870943	4449.799805
4865.805368	1.377272	0.870943	5718.267090
4865.806277	0.974696	0.870943	6604.265625
4865.807201	0.110614	0.870943	6706.473145
4865.808092	0.091436	0.870943	6787.942383
4865.809048	0.091538	0.870943	6875.452637
4865.809972	0.091494	0.870943	6959.993164
4865.810860	0.091531	0.870943	7041.272461
4865.811802	0.091644	0.870943	7127.601562
4865.812704	0.091553	0.870943	7210.182129
4865.813624	0.091553	0.870943	7294.410645
4865.814519	0.091523	0.870943	7376.324219
4865.815466	0.091553	0.870943	7463.024414
4866.859472	1.039032	0.758239	459.252136
4866.860422	1.464119	0.758239	1850.164795
4866.861337	1.448990	0.758239	3175.991211
4866.862243	1.413307	0.758239	4456.447266
4866.863137	1.378246	0.758239	5688.599121
4866.864095	0.954833	0.758239	6603.329102
4866.865000	0.110383	0.758239	6703.226074
4866.865905	0.091516	0.758239	6786.048340
4866.866793	0.091527	0.758239	6867.324219
4866.867750	0.091670	0.758239	6955.052246
4866.868653	0.091509	0.758239	7037.684570
4866.869553	0.091622	0.758239	7120.144531
4866.870484	0.091560	0.758239	7205.386719
4866.871386	0.091648	0.758239	7288.053223
4866.872279	0.091476	0.758239	7369.741211
4866.873165	0.091534	0.758239	7450.840820
4867.887104	1.079041	0.821189	531.966980
4867.888019	1.466389	0.821189	1873.713135
4867.888930	1.448269	0.821189	3193.086182
4867.889827	1.412849	0.821189	4460.411621
4867.890774	1.376276	0.821189	5763.744629
4867.891697	0.926360	0.821189	6618.774902
4867.892588	0.108699	0.821189	6715.625488
4867.893517	0.091597	0.821189	6800.718750
4867.894429	0.091619	0.821189	6884.274902
4867.895340	0.091666	0.821189	6967.782715
4867.896239	0.091696	0.821189	7050.216797
4867.897168	0.091637	0.821189	7135.347656
4867.898071	0.091666	0.821189	7218.122070
4867.898977	0.091626	0.821189	7301.135254
4867.899863	0.091597	0.821189	7382.290039
4867.900807	0.091692	0.821189	7468.847168
4868.961758	1.054501	0.800218	477.688873
4868.962667	1.465173	0.800218	1809.531372
4868.963615	1.448730	0.800218	3182.927734
4868.964534	1.412494	0.800218	4481.009766
4868.965442	1.377037	0.800218	5731.359375
4868.966347	0.973378	0.800218	6612.266113
4868.967303	0.106970	0.800218	6714.529785
4868.968210	0.091597	0.800218	6797.607910
4868.969097	0.091666	0.800218	6878.916016
4868.970008	0.091652	0.800218	6962.410645
4868.970938	0.091718	0.800218	7047.708008
4868.971847	0.091582	0.800218	7130.956055
4868.972741	0.091567	0.800218	7212.817383
4868.973680	0.091593	0.800218	7298.823242
4868.974584	0.091549	0.800218	7381.583496
4868.975484	0.091582	0.800218	7464.007324
4869.989326	1.035337	0.872478	453.477539
4869.990274	1.464708	0.872478	1842.020996
4869.991196	1.448434	0.872478	3177.477051
4869.992103	1.413127	0.872478	4459.183594
4869.992998	1.377543	0.872478	5692.083984
4869.993978	0.926598	0.872478	6600.149902
4869.994881	0.108373	0.872478	6698.010742
4869.995781	0.091542	0.872478	6780.398437
4869.996712	0.091597	0.872478	6865.674805
4869.997618	0.091619	0.872478	6948.681152
4869.998508	0.091692	0.872478	7030.287109
4869.999394	0.091626	0.872478	7111.467773
4870.000331	0.091589	0.872478	7197.287109
4870.001242	0.091553	0.872478	7280.691406
4870.002145	0.091578	0.872478	7363.386719
4870.003032	0.091564	0.872478	7444.603516
4871.055326	1.045627	0.824972	471.578003
4871.056226	1.464177	0.824972	1789.337524
4871.057191	1.448207	0.824972	3186.856934
4871.058104	1.412219	0.824972	4476.212891
4871.059009	1.376894	0.824972	5722.302246
4871.059973	0.916901	0.824972	6606.194336
4871.060872	0.106600	0.824972	6702.027832
4871.061771	0.091516	0.824972	6784.300781
4871.062661	0.091604	0.824972	6865.828125
4871.063612	0.091707	0.824972	6953.041016
4871.064509	0.091589	0.824972	7035.196777
4871.065411	0.091655	0.824972	7117.869629
4871.066300	0.091575	0.824972	7199.279297
4871.067237	0.091699	0.824972	7285.201660
4871.068135	0.091582	0.824972	7367.442383
4871.069029	0.091589	0.824972	7449.323242
4872.079826	1.037128	0.942961	456.336151
4872.080780	1.464342	0.942961	1853.318481
4872.081697	1.448478	0.942961	3181.572754
4872.082624	1.412168	0.942961	4490.652344
4872.083519	1.377224	0.942961	5723.268066
4872.084471	0.921350	0.942961	6600.393555
4872.085373	0.107384	0.942961	6697.253906
4872.086289	0.091553	0.942961	6781.116211
4872.087179	0.091688	0.942961	6862.718750
4872.088134	0.091578	0.942961	6950.176270
4872.089036	0.091520	0.942961	7032.727051
4872.089922	0.091556	0.942961	7113.846191
4872.090863	0.091641	0.942961	7200.080078
4872.091773	0.091560	0.942961	7283.399902
4872.092667	0.091626	0.942961	7365.313477
4872.093601	0.091692	0.942961	7450.953613
4873.147859	1.044236	0.774086	466.773407
4873.148759	1.464371	0.774086	1784.707642
4873.149698	1.449983	0.774086	3146.241699
4873.150619	1.413391	0.774086	4447.974609
4873.151544	1.377264	0.774086	5721.944336
4873.152454	0.980808	0.774086	6614.479492
4873.153339	0.115796	0.774086	6716.958984
4873.154333	0.091586	0.774086	6807.995117
4873.155230	0.091600	0.774086	6890.160645
4873.156146	0.091538	0.774086	6974.009766
4873.157040	0.091626	0.774086	7055.923340
4873.157995	0.091589	0.774086	7143.391113
4873.158898	0.091545	0.774086	7226.056641
4873.159788	0.091586	0.774086	7307.567871
4873.160720	0.091608	0.774086	7392.946289
4873.161625	0.091567	0.774086	7475.814941
4874.180559	1.040977	0.911500	459.070709
4874.181466	1.464265	0.911500	1787.159180
4874.182396	1.449558	0.911500	3135.248291
4874.183301	1.413860	0.911500	4414.791504
4874.184254	1.376689	0.911500	5726.776367
4874.185183	0.935753	0.911500	6596.090820
4874.186105	0.107435	0.911500	6695.145996
4874.186998	0.091498	0.911500	6776.853516
4874.187953	0.091567	0.911500	6864.300293
4874.188848	0.091589	0.911500	6946.272949
4874.189738	0.091685	0.911500	7027.872070
4874.190665	0.091707	0.911500	7112.883789
4874.191570	0.091626	0.911500	7195.805176
4874.192483	0.091560	0.911500	7279.399414
4874.193382	0.091611	0.911500	7361.757812
4874.194338	0.091670	0.911500	7449.394043
4875.243489	1.053186	0.851156	473.933716
4875.244415	1.464734	0.851156	1830.277222
4875.245315	1.449661	0.851156	3134.971680
4875.246251	1.413267	0.851156	4457.789062
4875.247162	1.377209	0.851156	5712.426758
4875.248083	0.977355	0.851156	6612.570312
4875.248972	0.115162	0.851156	6714.949707
4875.249912	0.091619	0.851156	6801.071289
4875.250821	0.091600	0.851156	6884.335937
4875.251726	0.091593	0.851156	6967.227539
4875.252613	0.091586	0.851156	7048.463867
4875.253555	0.091619	0.851156	7134.768555
4875.254466	0.091564	0.851156	7218.183105
4875.255354	0.091501	0.851156	7299.436523
4875.256286	0.091582	0.851156	7384.791016
4875.257195	0.091611	0.851156	7468.065918
4876.268489	1.030686	0.937136	450.409790
4876.269464	1.463375	0.937136	1877.200562
4876.270389	1.447555	0.937136	3216.188965
4876.271308	1.411362	0.937136	4513.230957
4876.272206	1.376107	0.937136	5748.975098
4876.273192	0.861317	0.937136	6598.233887
4876.274093	0.102689	0.937136	6690.756836
4876.274997	0.091560	0.937136	6773.527344
4876.275924	0.091608	0.937136	6858.447754
4876.276826	0.091622	0.937136	6941.091309
4876.277759	0.091692	0.937136	7026.639648
4876.278661	0.091637	0.937136	7109.296387
4876.279557	0.091666	0.937136	7191.429199
4876.280495	0.091659	0.937136	7277.405273
4876.281400	0.091564	0.937136	7360.270508
4876.282320	0.091615	0.937136	7444.556152
4877.339085	1.039761	0.832835	459.574219
4877.339980	1.463639	0.832835	1769.531006
4877.340964	1.447892	0.832835	3194.256592
4877.341873	1.412311	0.832835	4478.046875
4877.342765	1.377517	0.832835	5706.791992
4877.343724	0.938522	0.832835	6606.834473
4877.344634	0.109449	0.832835	6706.433594
4877.345532	0.091501	0.832835	6788.602051
4877.346479	0.091567	0.832835	6875.316406
4877.347382	0.091556	0.832835	6957.991699
4877.348284	0.091571	0.832835	7040.588867
4877.349174	0.091575	0.832835	7122.090332
4877.350098	0.091729	0.832835	7206.847656
4877.351009	0.091564	0.832835	7290.262207
4877.351908	0.091732	0.832835	7372.729492
4877.352794	0.091597	0.832835	7453.884277
4878.369285	1.062693	0.904531	530.283752
4878.370199	1.466499	0.904531	1870.663818
4878.371106	1.448108	0.904531	3184.097656
4878.371999	1.412893	0.904531	4445.811035
4878.372953	1.376136	0.904531	5758.645020
4878.373873	0.926906	0.904531	6611.397949
4878.374772	0.107743	0.904531	6708.258789
4878.375688	0.091469	0.904531	6792.043945
4878.376581	0.091531	0.904531	6873.780762
4878.377542	0.091512	0.904531	6961.724121
4878.378442	0.091578	0.904531	7044.144531
4878.379331	0.091597	0.904531	7125.574219
4878.380265	0.091677	0.904531	7211.200684
4878.381182	0.091560	0.904531	7295.161133
4878.382103	0.091560	0.904531	7379.487793
4878.382995	0.091670	0.904531	7461.257324
4879.433722	1.083527	0.913816	519.009277
4879.434635	1.465400	0.913816	1856.919800
4879.435567	1.447877	0.913816	3206.341309
4879.436460	1.411677	0.913816	4466.969238
4879.437419	1.375203	0.913816	5785.788574
4879.438338	0.912001	0.913816	6623.916992
4879.439225	0.107490	0.913816	6719.260742
4879.440169	0.091542	0.913816	6805.676270
4879.441077	0.091626	0.913816	6888.872559
4879.441969	0.091648	0.913816	6970.622559
4879.442901	0.091641	0.913816	7056.031738
4879.443815	0.091542	0.913816	7139.700684
4879.444711	0.091560	0.913816	7221.738281
4879.445600	0.091531	0.913816	7303.109375
4879.446541	0.091648	0.913816	7389.350098
4879.447446	0.091575	0.913816	7472.225098
4880.462294	1.039167	0.985134	454.116150
4880.463231	1.463815	0.985134	1825.710449
4880.464156	1.448533	0.985134	3165.603027
4880.465079	1.412545	0.985134	4469.381836
4880.465977	1.377264	0.985134	5706.165039
4880.466944	0.922192	0.985134	6597.924805
4880.467845	0.107303	0.985134	6694.605469
4880.468735	0.091553	0.985134	6776.087402
4880.469667	0.091641	0.985134	6861.496582
4880.470579	0.091531	0.985134	6944.972656
4880.471481	0.091666	0.985134	7027.655762
4880.472370	0.091611	0.985134	7109.098145
4880.473316	0.091666	0.985134	7195.814453
4880.474217	0.091479	0.985134	7278.237305
4880.475106	0.091633	0.985134	7359.699219
4880.476032	0.091637	0.985134	7444.555176
4881.530333	1.052941	0.877984	478.035034
4881.531232	1.464474	0.877984	1794.597046
4881.532172	1.449375	0.877984	3157.009521
4881.533095	1.412948	0.877984	4461.160156
4881.534011	1.376869	0.877984	5722.372070
4881.534929	0.969734	0.877984	6612.587891
4881.535863	0.110486	0.877984	6715.781738
4881.536769	0.091494	0.877984	6798.675293
4881.537670	0.091608	0.877984	6881.213867
4881.538556	0.091615	0.877984	6962.384766
4881.539487	0.091622	0.877984	7047.685059
4881.540397	0.091626	0.877984	7131.064453
4881.541299	0.091593	0.877984	7213.681152
4881.542231	0.091688	0.877984	7299.134766
4881.543135	0.091652	0.877984	7381.987793
4881.544029	0.091505	0.877984	7463.793457
4882.553310	1.057599	0.950196	478.034729
4882.554216	1.464503	0.950196	1804.874512
4882.555111	1.449587	0.950196	3102.255127
4882.556077	1.412904	0.950196	4467.120117
4882.556987	1.377100	0.950196	5720.280762
4882.557895	0.981332	0.950196	6611.330078
4882.558836	0.113811	0.950196	6718.426270
4882.559742	0.091556	0.950196	6801.376465
4882.560639	0.091545	0.950196	6883.492676
4882.561526	0.091578	0.950196	6964.722656
4882.562466	0.091553	0.950196	7050.782227
4882.563367	0.091542	0.950196	7133.261230
4882.564273	0.091578	0.950196	7216.231445
4882.565158	0.091560	0.950196	7297.262207
4882.566103	0.091681	0.950196	7383.900879
4882.567007	0.091586	0.950196	7466.694336
4883.630042	1.051622	0.941064	469.023529
4883.630949	1.464474	0.941064	1797.301392
4883.631867	1.449730	0.941064	3128.153809
4883.632802	1.413248	0.941064	4449.541016
4883.633721	1.377246	0.941064	5715.229980
4883.634628	0.980907	0.941064	6604.912598
4883.635575	0.111632	0.941064	6710.627930
4883.636481	0.091505	0.941064	6793.531738
4883.637383	0.091571	0.941064	6876.128906
4883.638270	0.091560	0.941064	6957.342773
4883.639221	0.091622	0.941064	7044.475586
4883.640127	0.091597	0.941064	7127.462402
4883.641026	0.091597	0.941064	7209.807617
4883.641945	0.091626	0.941064	7294.011719
4883.642849	0.091670	0.941064	7376.881348
4883.643758	0.091641	0.941064	7460.182617
4884.649947	1.056852	1.042876	473.469574
4884.650861	1.464584	1.042876	1812.099121
4884.651759	1.450052	1.042876	3114.246094
4884.652703	1.413135	1.042876	4448.245117
4884.653629	1.376961	1.042876	5723.310547
4884.654549	0.970082	1.042876	6615.785645
4884.655438	0.113481	1.042876	6716.670898
4884.656390	0.091626	1.042876	6803.898926
4884.657292	0.091556	1.042876	6886.482910
4884.658183	0.091637	1.042876	6968.131348
4884.659120	0.091553	1.042876	7053.916016
4884.660019	0.091644	1.042876	7136.304199
4884.660925	0.091567	1.042876	7219.264160
4884.661822	0.091597	1.042876	7301.426270
4884.662755	0.091622	1.042876	7386.909668
4884.663658	0.091593	1.042876	7469.618164
4885.726229	1.101760	0.883052	566.304749
4885.727154	1.466726	0.883052	1923.026367
4885.728089	1.446079	0.883052	3275.110352
4885.728983	1.410483	0.883052	4536.082520
4885.729937	1.373840	0.883052	5846.726074
4885.730848	0.866411	0.883052	6636.026367
4885.731737	0.103770	0.883052	6728.277344
4885.732672	0.091571	0.883052	6813.896484
4885.733591	0.091556	0.883052	6898.036621
4885.734491	0.091564	0.883052	6980.443848
4885.735385	0.091703	0.883052	7062.426270
4885.736335	0.091648	0.883052	7149.491699
4885.737244	0.091611	0.883052	7232.766602
4885.738136	0.091578	0.883052	7314.454590
4885.739082	0.091696	0.883052	7401.198730
4885.739986	0.091593	0.883052	7483.999023
4886.747597	1.035963	1.053531	454.787781
4886.748492	1.463221	1.053531	1764.370850
4886.749477	1.447980	1.053531	3190.630859
4886.750391	1.411901	1.053531	4481.107910
4886.751288	1.377023	1.053531	5716.297363
4886.752258	0.916560	1.053531	6605.360352
4886.753166	0.106802	1.053531	6702.336426
4886.754064	0.091531	1.053531	6784.531250
4886.754949	0.091615	1.053531	6865.610352
4886.755882	0.091648	1.053531	6951.117676
4886.756790	0.091512	1.053531	7034.210937
4886.757690	0.091531	1.053531	7116.588867
4886.758623	0.091571	1.053531	7202.024414
4886.759532	0.091556	1.053531	7285.249023
4886.760434	0.091542	1.053531	7367.819824
4886.761320	0.091604	1.053531	7448.980957
4887.814094	1.037897	0.917087	456.674561
4887.815036	1.464012	0.917087	1835.774170
4887.815942	1.449298	0.917087	3148.838379
4887.816848	1.413622	0.917087	4429.579590
4887.817742	1.378718	0.917087	5662.153809
4887.818711	0.964896	0.917087	6597.138184
4887.819607	0.112061	0.917087	6697.544434
4887.820513	0.091498	0.917087	6780.441406
4887.821407	0.091560	0.917087	6862.295898
4887.822353	0.091641	0.917087	6948.987793
4887.823268	0.091608	0.917087	7032.808594
4887.824169	0.091633	0.917087	7115.370117
4887.825093	0.091659	0.917087	7200.062988
4887.825997	0.091736	0.917087	7282.992187
4887.826894	0.091567	0.917087	7365.127930
4887.827782	0.091564	0.917087	7446.436523
4888.835023	1.050978	1.029679	465.583191
4888.835979	1.465822	1.029679	1866.908447
4888.836893	1.447881	1.029679	3190.271484
4888.837791	1.412596	1.029679	4458.783203
4888.838731	1.376547	1.029679	5752.737305
4888.839657	0.943696	1.029679	6626.600098
4888.840550	0.109753	1.029679	6724.609863
4888.841483	0.091523	1.029679	6810.001465
4888.842382	0.091736	1.029679	6892.472168
4888.843296	0.091534	1.029679	6976.134766
4888.844189	0.091608	1.029679	7057.940430
4888.845133	0.091659	1.029679	7144.466309
4888.846029	0.091553	1.029679	7226.497559
4888.846933	0.091560	1.029679	7309.268066
4888.847823	0.091527	1.029679	7390.727051
4888.848771	0.091714	1.029679	7477.671875
4889.918438	1.066743	0.936254	489.635101
4889.919358	1.465214	0.936254	1837.631714
4889.920263	1.449287	0.936254	3149.236572
4889.921156	1.413662	0.936254	4411.636719
4889.922108	1.377433	0.936254	5722.953125
4889.923036	0.962274	0.936254	6615.943359
4889.923925	0.113159	0.936254	6716.541992
4889.924877	0.091523	0.936254	6803.672363
4889.925776	0.091630	0.936254	6886.047363
4889.926670	0.091611	0.936254	6967.947754
4889.927559	0.091479	0.936254	7049.272949
4889.928491	0.091652	0.936254	7134.692383
4889.929398	0.091655	0.936254	7217.823730
4889.930297	0.091582	0.936254	7300.155762
4889.931194	0.091578	0.936254	7382.301758
4889.932124	0.091696	0.936254	7467.578613
4890.939855	1.037977	1.082269	457.748016
4890.940753	1.463855	1.082269	1772.289795
4890.941702	1.449082	1.082269	3147.468750
4890.942620	1.413190	1.082269	4444.776855
4890.943535	1.377261	1.082269	5704.970215
4890.944438	0.968646	1.082269	6579.657715
4890.945386	0.110098	1.082269	6684.030273
4890.946294	0.091527	1.082269	6767.136719
4890.947188	0.091516	1.082269	6848.952148
4890.948109	0.091509	1.082269	6933.231934
4890.949010	0.091608	1.082269	7015.770508
4890.949913	0.091655	1.082269	7098.535156
4890.950802	0.091549	1.082269	7179.922363
4890.951758	0.091641	1.082269	7267.530762
4890.952670	0.091534	1.082269	7351.010254
4890.953570	0.091571	1.082269	7433.424316
4892.004878	1.107345	0.961890	556.994507
4892.005789	1.466023	0.961890	1892.541382
4892.006697	1.447577	0.961890	3206.941162
4892.007594	1.411718	0.961890	4473.251953
4892.008549	1.375063	0.961890	5786.437500
4892.009485	0.894814	0.961890	6623.983887
4892.010388	0.104476	0.961890	6718.326172
4892.011323	0.091490	0.961890	6803.869629
4892.012225	0.091578	0.961890	6886.473145
4892.013122	0.091465	0.961890	6968.517090
4892.014013	0.091545	0.961890	7050.083984
4892.014962	0.091556	0.961890	7136.971191
4892.015866	0.091582	0.961890	7219.761230
4892.016758	0.091534	0.961890	7301.410156
4892.017660	0.091487	0.961890	7383.931152
4892.018595	0.091619	0.961890	7469.594727
4893.037526	1.051227	1.056524	473.052094
4893.038499	1.466166	1.056524	1899.631470
4893.039422	1.446709	1.056524	3234.943848
4893.040322	1.411329	1.056524	4505.140137
4893.041216	1.375935	1.056524	5735.226074
4893.042179	0.900809	1.056524	6602.705566
4893.043082	0.105374	1.056524	6697.857910
4893.043972	0.091479	1.056524	6779.274414
4893.044909	0.091644	1.056524	6865.145020
4893.045813	0.091549	1.056524	6947.905273
4893.046711	0.091527	1.056524	7030.096680
4893.047602	0.091586	1.056524	7111.699707
4893.048543	0.091754	1.056524	7198.040527
4893.049448	0.091520	1.056524	7280.865723
4893.050339	0.091538	1.056524	7362.426270
4893.051270	0.091718	1.056524	7447.815430
4894.097363	1.056500	0.979196	473.312073
4894.098337	1.466558	0.979196	1901.739258
4894.099251	1.447291	0.979196	3224.563477
4894.100149	1.411930	0.979196	4492.476562
4894.101088	1.375781	0.979196	5784.334961
4894.102010	0.917040	0.979196	6629.845703
4894.102902	0.107618	0.979196	6725.841309
4894.103789	0.091450	0.979196	6806.957520
4894.104739	0.091553	0.979196	6893.932617
4894.105643	0.091509	0.979196	6976.656738
4894.106548	0.091520	0.979196	7059.481934
4894.107450	0.091516	0.979196	7142.029297
4894.108397	0.091633	0.979196	7228.806152
4894.109304	0.091575	0.979196	7311.864258
4894.110199	0.091589	0.979196	7393.836914
4894.111139	0.091648	0.979196	7479.985840
4895.125977	1.052889	1.065805	474.853088
4895.126876	1.464207	1.065805	1791.174805
4895.127797	1.449510	1.065805	3126.173828
4895.128744	1.412527	1.065805	4463.836914
4895.129654	1.376840	1.065805	5716.760742
4895.130553	0.974927	1.065805	6593.219727
4895.131501	0.109431	1.065805	6696.960449
4895.132413	0.091520	1.065805	6780.426270
4895.133303	0.091604	1.065805	6861.953613
4895.134228	0.091663	1.065805	6946.741699
4895.135135	0.091600	1.065805	7029.823242
4895.136039	0.091589	1.065805	7112.620117
4895.136929	0.091571	1.065805	7194.118164
4895.137855	0.091611	1.065805	7278.950195
4895.138764	0.091641	1.065805	7362.251465
4895.139672	0.091619	1.065805	7445.441406
4896.198116	1.056156	1.013449	477.382538
4896.199037	1.464701	1.013449	1826.372192
4896.199933	1.449415	1.013449	3125.048340
4896.200892	1.412930	1.013449	4480.047852
4896.201801	1.376397	1.013449	5731.192383
4896.202725	0.951123	1.013449	6610.030273
4896.203615	0.111826	1.013449	6709.555664
4896.204564	0.091582	1.013449	6796.466797
4896.205474	0.091553	1.013449	6879.779785
4896.206370	0.091582	1.013449	6961.837402
4896.207272	0.091567	1.013449	7044.431152
4896.208194	0.091637	1.013449	7128.920410
4896.209101	0.091516	1.013449	7211.925293
4896.209992	0.091549	1.013449	7293.495605
4896.210920	0.091633	1.013449	7378.531250
4896.211821	0.091604	1.013449	7461.066406
4897.229265	1.041247	1.073205	459.190155
4897.230162	1.463540	1.073205	1771.985596
4897.231111	1.448529	1.073205	3146.639648
4897.232039	1.412545	1.073205	4457.481445
4897.232946	1.376902	1.073205	5706.331543
4897.233894	0.933065	1.073205	6590.877441
4897.234820	0.106549	1.073205	6689.541992
4897.235733	0.091487	1.073205	6773.069336
4897.236632	0.091630	1.073205	6855.444336
4897.237566	0.091615	1.073205	6941.012695
4897.238467	0.091582	1.073205	7023.528320
4897.239364	0.091611	1.073205	7105.703613
4897.240254	0.091611	1.073205	7187.237793
4897.241187	0.091597	1.073205	7272.697266
4897.242092	0.091582	1.073205	7355.579102
4897.242988	0.091593	1.073205	7437.646484
4898.288103	1.057075	1.036156	483.083344
4898.289026	1.464661	1.036156	1834.965210
4898.289926	1.449206	1.036156	3139.250977
4898.290856	1.412443	1.036156	4452.822266
4898.291775	1.376796	1.036156	5718.097656
4898.292686	0.980812	1.036156	6611.617187
4898.293582	0.114543	1.036156	6714.248047
4898.294533	0.091575	1.036156	6801.335449
4898.295439	0.091648	1.036156	6884.368652
4898.296334	0.091677	1.036156	6966.419922
4898.297259	0.091659	1.036156	7051.204590
4898.298160	0.091630	1.036156	7133.762695
4898.299060	0.091608	1.036156	7216.209473
4898.299944	0.091619	1.036156	7297.200195
4898.300884	0.091641	1.036156	7383.342285
4898.301790	0.091641	1.036156	7466.368652
4899.318237	1.058317	1.143628	475.184204
4899.319147	1.464595	1.143628	1807.965454
4899.320041	1.449595	1.143628	3103.903320
4899.320997	1.412571	1.143628	4454.321289
4899.321910	1.376986	1.143628	5711.509766
4899.322827	0.982683	1.143628	6612.630371
4899.323755	0.114873	1.143628	6719.232422
4899.324654	0.091615	1.143628	6801.594238
4899.325563	0.091600	1.143628	6884.858887
4899.326455	0.091600	1.143628	6966.566406
4899.327391	0.091688	1.143628	7052.386719
4899.328287	0.091531	1.143628	7134.398437
4899.329189	0.091630	1.143628	7217.048340
4899.330080	0.091549	1.143628	7298.618652
4899.331031	0.091696	1.143628	7385.821289
4899.331946	0.091644	1.143628	7469.675781
4900.384222	1.054431	0.976533	471.330750
4900.385148	1.464525	0.976533	1827.480957
4900.386050	1.449280	0.976533	3134.731445
4900.387003	1.412750	0.976533	4481.082520
4900.387903	1.376733	0.976533	5720.142578
4900.388822	0.970953	0.976533	6612.448730
4900.389713	0.114265	0.976533	6714.258789
4900.390648	0.091564	0.976533	6799.871094
4900.391552	0.091564	0.976533	6882.644531
4900.392459	0.091597	0.976533	6965.722656
4900.393344	0.091520	0.976533	7046.717773
4900.394290	0.091655	0.976533	7133.423828
4900.395198	0.091523	0.976533	7216.527344
4900.396091	0.091641	0.976533	7298.362305
4900.397028	0.091663	0.976533	7384.250000
4900.397925	0.091615	0.976533	7466.428711
4901.415392	1.054365	1.060242	479.736145
4901.416285	1.464049	1.060242	1787.132080
4901.417248	1.447870	1.060242	3181.430664
4901.418175	1.411520	1.060242	4489.909668
4901.419089	1.376166	1.060242	5747.725098
4901.419991	0.930674	1.060242	6587.192871
4901.420951	0.104011	1.060242	6687.043457
4901.421862	0.091501	1.060242	6770.401367
4901.422767	0.091578	1.060242	6853.279785
4901.423704	0.091659	1.060242	6939.164062
4901.424606	0.091633	1.060242	7021.817383
4901.425505	0.091703	1.060242	7104.258301
4901.426390	0.091531	1.060242	7185.263184
4901.427324	0.091707	1.060242	7270.916992
4901.428234	0.091626	1.060242	7354.296875
4901.429137	0.091542	1.060242	7436.958984
4902.481371	1.052219	1.082398	469.289795
4902.482275	1.464012	1.082398	1792.756958
4902.483171	1.449763	1.082398	3091.744629
4902.484136	1.412981	1.082398	4455.271484
4902.485054	1.377041	1.082398	5719.395020
4902.485959	0.984613	1.082398	6610.469727
4902.486893	0.114536	1.082398	6717.446289
4902.487794	0.091589	1.082398	6799.968262
4902.488696	0.091538	1.082398	6882.535645
4902.489585	0.091476	1.082398	6963.857422
4902.490533	0.091707	1.082398	7050.795410
4902.491433	0.091527	1.082398	7133.169922
4902.492332	0.091553	1.082398	7215.475586
4902.493220	0.091608	1.082398	7296.823242
4902.494175	0.091622	1.082398	7384.322754
4902.495074	0.091571	1.082398	7466.645020
4903.509450	1.035919	1.154561	456.840363
4903.510403	1.463339	1.154561	1851.401978
4903.511332	1.447504	1.154561	3196.132812
4903.512250	1.411564	1.154561	4491.948242
4903.513148	1.376254	1.154561	5727.824219
4903.514102	0.923412	1.154561	6608.759277
4903.515017	0.106436	1.154561	6706.147949
4903.515919	0.091520	1.154561	6788.698730
4903.516806	0.091644	1.154561	6869.987305
4903.517749	0.091666	1.154561	6956.428711
4903.518646	0.091571	1.154561	7038.567871
4903.519535	0.091666	1.154561	7120.059082
4903.520468	0.091663	1.154561	7205.580078
4903.521367	0.091725	1.154561	7288.040527
4903.522268	0.091641	1.154561	7370.608887
4903.523164	0.091560	1.154561	7452.646484
4904.573916	1.054259	1.037695	470.199493
4904.574843	1.464727	1.037695	1828.000977
4904.575747	1.449148	1.037695	3138.030762
4904.576677	1.413179	1.037695	4452.287109
4904.577599	1.376832	1.037695	5721.726562
4904.578522	0.967793	1.037695	6614.999512
4904.579410	0.114027	1.037695	6716.255371
4904.580351	0.091604	1.037695	6802.454590
4904.581256	0.091597	1.037695	6885.349609
4904.582158	0.091619	1.037695	6967.989746
4904.583044	0.091655	1.037695	7049.196289
4904.583984	0.091615	1.037695	7135.314453
4904.584893	0.091604	1.037695	7218.582520
4904.585787	0.091556	1.037695	7300.434082
4904.586709	0.091666	1.037695	7384.950195
4904.587617	0.091589	1.037695	7468.113281
4905.608151	1.052340	1.089777	475.657684
4905.609053	1.464448	1.089777	1796.589966
4905.609995	1.448979	1.089777	3161.528809
4905.610906	1.412900	1.089777	4448.681152
4905.611813	1.377645	1.089777	5698.205566
4905.612720	0.996372	1.089777	6601.915039
4905.613671	0.109750	1.089777	6706.287109
4905.614576	0.091556	1.089777	6789.145508
4905.615471	0.091593	1.089777	6871.121094
4905.616391	0.091538	1.089777	6955.335937
4905.617306	0.091677	1.089777	7039.220703
4905.618220	0.091586	1.089777	7122.930176
4905.619119	0.091538	1.089777	7205.223145
4905.620051	0.091597	1.089777	7290.591309
4905.620953	0.091622	1.089777	7373.234863
4905.621855	0.091564	1.089777	7455.825195
4906.671064	1.048901	1.113392	468.858948
4906.671964	1.464236	1.113392	1786.671143
4906.672870	1.449232	1.113392	3099.675537
4906.673824	1.413018	1.113392	4447.694336
4906.674745	1.376993	1.113392	5715.905273
4906.675650	0.984503	1.113392	6606.880859
4906.676582	0.112683	1.113392	6711.901367
4906.677488	0.091545	1.113392	6794.841309
4906.678391	0.091637	1.113392	6877.589355
4906.679277	0.091707	1.113392	6958.841309
4906.680219	0.091703	1.113392	7045.225586
4906.681121	0.091512	1.113392	7127.770020
4906.682012	0.091652	1.113392	7209.431641
4906.682922	0.091736	1.113392	7292.911133
4906.683849	0.091696	1.113392	7377.913086
4906.684759	0.091652	1.113392	7461.315918
4907.701211	1.057430	1.190425	480.073395
4907.702117	1.464635	1.190425	1807.032715
4907.703060	1.448602	1.190425	3173.064453
4907.703979	1.412131	1.190425	4470.812988
4907.704886	1.376770	1.190425	5719.543457
4907.705790	0.985624	1.190425	6610.547363
4907.706731	0.109208	1.190425	6713.312012
4907.707629	0.091575	1.190425	6795.545898
4907.708530	0.091666	1.190425	6878.137207
4907.709418	0.091633	1.190425	6959.507812
4907.710353	0.091666	1.190425	7045.215820
4907.711260	0.091578	1.190425	7128.277344
4907.712161	0.091608	1.190425	7210.815918
4907.713088	0.091688	1.190425	7295.811035
4907.713999	0.091699	1.190425	7379.349121
4907.714902	0.091593	1.190425	7462.057617
4908.764130	1.053856	1.053245	477.396820
4908.765033	1.464309	1.053245	1799.667969
4908.765929	1.450118	1.053245	3098.974121
4908.766869	1.413479	1.053245	4427.644531
4908.767807	1.376722	1.053245	5719.010254
4908.768722	0.972220	1.053245	6608.591797
4908.769657	0.112020	1.053245	6713.330566
4908.770570	0.091538	1.053245	6796.904785
4908.771473	0.091589	1.053245	6879.609863
4908.772361	0.091542	1.053245	6960.898926
4908.773308	0.091747	1.053245	7047.783203
4908.774213	0.091652	1.053245	7130.728027
4908.775104	0.091630	1.053245	7212.370117
4908.776007	0.091626	1.053245	7295.108398
4908.776944	0.091637	1.053245	7380.972168
4908.777849	0.091608	1.053245	7463.876953
4909.794772	1.043511	1.133622	467.492828
4909.795666	1.463181	1.133622	1775.576782
4909.796642	1.448075	1.133622	3188.897949
4909.797567	1.411560	1.133622	4494.590820
4909.798466	1.376367	1.133622	5731.944824
4909.799421	0.916091	1.133622	6606.812012
4909.800322	0.106523	1.133622	6702.789551
4909.801224	0.091498	1.133622	6785.320801
4909.802120	0.091648	1.133622	6867.437500
4909.803061	0.091641	1.133622	6953.671387
4909.803965	0.091549	1.133622	7036.431641
4909.804869	0.091615	1.133622	7119.251465
4909.805755	0.091670	1.133622	7200.471191
4909.806707	0.091567	1.133622	7287.643555
4909.807608	0.091692	1.133622	7370.257812
4909.808497	0.091655	1.133622	7451.739258
4910.863321	1.049432	1.111027	471.195099
4910.864240	1.464100	1.111027	1816.703247
4910.865139	1.449415	1.111027	3119.727539
4910.866077	1.413105	1.111027	4445.220703
4910.866985	1.377422	1.111027	5695.919922
4910.867908	0.986353	1.111027	6606.323242
4910.868803	0.115862	1.111027	6710.019531
4910.869760	0.091545	1.111027	6797.628418
4910.870660	0.091736	1.111027	6880.190430
4910.871565	0.091556	1.111027	6963.048828
4910.872471	0.091626	1.111027	7046.062012
4910.873401	0.091644	1.111027	7131.291016
4910.874310	0.091630	1.111027	7214.582520
4910.875204	0.091663	1.111027	7296.528809
4910.876131	0.091666	1.111027	7381.503418
4910.877038	0.091699	1.111027	7464.674805
4911.891927	1.041332	1.201962	465.475342
4911.892890	1.465708	1.201962	1876.952148
4911.893800	1.447720	1.201962	3194.377197
4911.894704	1.412256	1.201962	4471.056641
4911.895595	1.376726	1.201962	5697.719727
4911.896550	0.945527	1.201962	6600.698242
4911.897463	0.109241	1.201962	6700.435059
4911.898358	0.091633	1.201962	6782.446777
4911.899297	0.091644	1.201962	6868.500977
4911.900202	0.091681	1.201962	6951.472168
4911.901103	0.091633	1.201962	7034.033691
4911.901991	0.091666	1.201962	7115.433105
4911.902941	0.091637	1.201962	7202.488281
4911.903840	0.091674	1.201962	7284.902832
4911.904740	0.091556	1.201962	7367.303711
4911.905625	0.091593	1.201962	7448.363281
4912.952305	1.052523	1.112006	499.948547
4912.953241	1.465675	1.112006	1871.820557
4912.954160	1.447328	1.112006	3201.914795
4912.955055	1.411941	1.112006	4465.602051
4912.955989	1.375920	1.112006	5750.711914
4912.956918	0.920273	1.112006	6605.645996
4912.957819	0.106967	1.112006	6702.022949
4912.958707	0.091604	1.112006	6783.367187
4912.959664	0.091710	1.112006	6871.133789
4912.960570	0.091633	1.112006	6954.153320
4912.961471	0.091626	1.112006	7036.708496
4912.962396	0.091648	1.112006	7121.482910
4912.963304	0.091681	1.112006	7204.729004
4912.964214	0.091549	1.112006	7288.038574
4912.965104	0.091600	1.112006	7369.562988
4912.966036	0.091721	1.112006	7455.047363
4913.986526	1.049850	1.169651	473.482300
4913.987443	1.464657	1.169651	1816.572876
4913.988350	1.449089	1.169651	3130.896973
4913.989291	1.412673	1.169651	4460.222656
4913.990207	1.376722	1.169651	5721.300293
4913.991129	0.960879	1.169651	6607.230469
4913.992019	0.112324	1.169651	6707.199219
4913.992967	0.091597	1.169651	6794.032715
4913.993869	0.091538	1.169651	6876.600098
4913.994764	0.091696	1.169651	6958.667480
4913.995708	0.091641	1.169651	7045.176270
4913.996612	0.091553	1.169651	7127.939941
4913.997507	0.091567	1.169651	7209.892578
4913.998395	0.091527	1.169651	7291.168457
4913.999323	0.091681	1.169651	7376.248535
4914.000235	0.091626	1.169651	7459.811523
4915.053530	1.049070	1.129916	465.786987
4915.054435	1.464053	1.129916	1790.754761
4915.055336	1.449426	1.129916	3096.687988
4915.056293	1.412930	1.129916	4448.861816
4915.057207	1.377166	1.129916	5707.591309
4915.058110	0.991626	1.129916	6603.029785
4915.059059	0.113705	1.129916	6710.935547
4915.059968	0.091542	1.129916	6794.146973
4915.060864	0.091652	1.129916	6876.266602
4915.061758	0.091626	1.129916	6958.180176
4915.062712	0.091633	1.129916	7045.598145
4915.063618	0.091615	1.129916	7128.601562
4915.064517	0.091571	1.129916	7210.923828
4915.065419	0.091589	1.129916	7293.537598
4915.066338	0.091674	1.129916	7377.785645
4915.067241	0.091630	1.129916	7460.527344
4916.084179	1.042427	1.220484	465.964752
4916.085072	1.463448	1.220484	1772.824097
4916.086041	1.447987	1.220484	3175.923340
4916.086958	1.411919	1.220484	4470.653320
4916.087858	1.376902	1.220484	5709.865234
4916.088819	0.934391	1.220484	6607.814941
4916.089722	0.109043	1.220484	6706.280762
4916.090620	0.091520	1.220484	6788.465332
4916.091510	0.091630	1.220484	6870.015625
4916.092453	0.091575	1.220484	6956.370605
4916.093357	0.091666	1.220484	7039.236816
4916.094261	0.091549	1.220484	7121.997070
4916.095149	0.091707	1.220484	7203.432617
4916.096099	0.091630	1.220484	7290.480957
4916.097002	0.091685	1.220484	7373.271973
4916.097899	0.091608	1.220484	7455.443848
4917.144026	1.043137	1.099679	469.411743
4917.144921	1.463815	1.099679	1779.525879
4917.145863	1.449324	1.099679	3144.788818
4917.146784	1.412772	1.099679	4445.952148
4917.147692	1.377433	1.099679	5696.661133
4917.148633	0.957162	1.099679	6597.350586
4917.149551	0.110380	1.099679	6698.679199
4917.150461	0.091454	1.099679	6781.902344
4917.151356	0.091703	1.099679	6863.976562
4917.152293	0.091633	1.099679	6949.836914
4917.153189	0.091677	1.099679	7031.979492
4917.154090	0.091567	1.099679	7114.481934
4917.154979	0.091593	1.099679	7195.908203
4917.155932	0.091729	1.099679	7283.325684
4917.156837	0.091534	1.099679	7366.164551
4917.157736	0.091604	1.099679	7448.516602
4918.178251	1.042866	1.236658	459.903961
4918.179227	1.466129	1.236658	1890.846069
4918.180144	1.447145	1.236658	3217.877930
4918.181046	1.411520	1.236658	4491.068848
4918.181979	1.375778	1.236658	5774.669434
4918.182902	0.920109	1.236658	6623.929687
4918.183796	0.107684	1.236658	6720.199707
4918.184685	0.091534	1.236658	6801.573730
4918.185623	0.091732	1.236658	6887.618652
4918.186527	0.091593	1.236658	6970.418945
4918.187437	0.091597	1.236658	7053.771973
4918.188323	0.091604	1.236658	7134.933105
4918.189280	0.091718	1.236658	7222.706543
4918.190193	0.091512	1.236658	7306.257324
4918.191085	0.091630	1.236658	7387.990723
4918.192022	0.091674	1.236658	7473.888672
4919.242210	1.050883	1.139306	467.642761
4919.243129	1.464521	1.139306	1813.537842
4919.244038	1.449287	1.139306	3130.939941
4919.244941	1.413263	1.139306	4407.116211
4919.245903	1.376404	1.139306	5731.216797
4919.246830	0.950416	1.139306	6612.252441
4919.247729	0.110090	1.139306	6711.223633
4919.248672	0.091545	1.139306	6797.550781
4919.249568	0.091589	1.139306	6879.614746
4919.250468	0.091560	1.139306	6962.018555
4919.251357	0.091597	1.139306	7043.448242
4919.252302	0.091619	1.139306	7130.027832
4919.253204	0.091637	1.139306	7212.684570
4919.254102	0.091578	1.139306	7294.921875
4919.255018	0.091538	1.139306	7378.770996
4919.255947	0.091619	1.139306	7463.884766
4920.273369	1.051425	1.220927	475.243866
4920.274271	1.464214	1.220927	1795.964844
4920.275222	1.448533	1.220927	3173.519531
4920.276141	1.412062	1.220927	4471.204102
4920.277054	1.376473	1.220927	5727.924316
4920.277989	0.945813	1.220927	6612.259277
4920.278875	0.111522	1.220927	6711.067871
4920.279829	0.091556	1.220927	6798.412598
4920.280722	0.091611	1.220927	6880.221680
4920.281607	0.091556	1.220927	6961.249023
4920.282539	0.091615	1.220927	7046.634277
4920.283459	0.091567	1.220927	7130.876465
4920.284363	0.091476	1.220927	7213.570801
4920.285254	0.091600	1.220927	7295.186523
4920.286235	0.091534	1.220927	7384.981934
4920.287147	0.091615	1.220927	7468.534668
4921.336293	1.054387	1.140011	480.800568
4921.337190	1.464100	1.140011	1794.098511
4921.338087	1.450027	1.140011	3094.772461
4921.339040	1.412754	1.140011	4441.126953
4921.339956	1.377268	1.140011	5702.704590
4921.340871	0.990271	1.140011	6608.802734
4921.341761	0.116085	1.140011	6712.118652
4921.342715	0.091685	1.140011	6799.585937
4921.343615	0.091582	1.140011	6882.009766
4921.344503	0.091589	1.140011	6963.341309
4921.345452	0.091648	1.140011	7050.315430
4921.346355	0.091696	1.140011	7133.116699
4921.347250	0.091545	1.140011	7215.049805
4921.348142	0.091630	1.140011	7296.783203
4921.349071	0.091648	1.140011	7381.924316
4921.349982	0.091534	1.140011	7465.312012
4922.366927	1.041350	1.252143	464.442108
4922.367820	1.463269	1.252143	1771.141357
4922.368793	1.448042	1.252143	3180.086182
4922.369706	1.412022	1.252143	4469.261719
4922.370608	1.376682	1.252143	5711.028809
4922.371559	0.938708	1.252143	6603.740723
4922.372470	0.107820	1.252143	6701.964355
4922.373378	0.091586	1.252143	6785.124023
4922.374293	0.091516	1.252143	6868.861328
4922.375190	0.091648	1.252143	6951.069336
4922.376136	0.091582	1.252143	7037.706055
4922.377047	0.091619	1.252143	7121.170410
4922.377967	0.091549	1.252143	7205.395508
4922.378866	0.091692	1.252143	7287.826660
4922.379809	0.091633	1.252143	7374.236816
4922.380707	0.091582	1.252143	7456.477539
4923.432913	1.040281	1.179605	461.884644
4923.433814	1.464130	1.179605	1781.065430
4923.434747	1.449844	1.179605	3133.769531
4923.435656	1.413977	1.179605	4419.074707
4923.436560	1.378312	1.179605	5665.068359
4923.437454	1.040563	1.179605	6595.331543
4923.438413	0.115250	1.179605	6705.856445
4923.439315	0.091556	1.179605	6788.440430
4923.440213	0.091633	1.179605	6870.727051
4923.441101	0.091571	1.179605	6952.041992
4923.442051	0.091718	1.179605	7039.173828
4923.442958	0.091575	1.179605	7122.231934
4923.443848	0.091542	1.179605	7203.704102
4923.444776	0.091501	1.179605	7288.617676
4923.445676	0.091611	1.179605	7371.067871
4923.446575	0.091476	1.179605	7453.304687
4924.458976	1.060554	1.255954	480.431091
4924.459876	1.464042	1.255954	1798.068604
4924.460772	1.449756	1.255954	3097.049805
4924.461730	1.412505	1.255954	4450.229492
4924.462640	1.376726	1.255954	5703.050293
4924.463558	0.982881	1.255954	6605.334961
4924.464474	0.114203	1.255954	6709.944824
4924.465407	0.091586	1.255954	6795.394043
4924.466314	0.091505	1.255954	6878.389160
4924.467208	0.091619	1.255954	6960.296387
4924.468139	0.091685	1.255954	7045.654785
4924.469042	0.091648	1.255954	7128.413086
4924.469944	0.091512	1.255954	7210.957520
4924.470836	0.091516	1.255954	7292.589844
4924.471777	0.091666	1.255954	7378.847656
4924.472674	0.091626	1.255954	7461.036133
4925.530060	1.039402	1.151584	458.376221
4925.530959	1.463375	1.151584	1773.950562
4925.531927	1.448152	1.151584	3175.761475
4925.532845	1.412025	1.151584	4472.000488
4925.533745	1.376851	1.151584	5711.166016
4925.534694	0.948809	1.151584	6611.585449
4925.535595	0.109984	1.151584	6710.681152
4925.536493	0.091476	1.151584	6792.826660
4925.537379	0.091578	1.151584	6873.965332
4925.538340	0.091575	1.151584	6961.968750
4925.539237	0.091578	1.151584	7044.114746
4925.540131	0.091586	1.151584	7125.992187
4925.541052	0.091604	1.151584	7210.359375
4925.541984	0.091637	1.151584	7295.765137
4925.542893	0.091589	1.151584	7379.020020
4925.543792	0.091582	1.151584	7461.352051
4926.558177	1.057643	1.238451	476.996918
4926.559097	1.464624	1.238451	1824.450928
4926.560008	1.448701	1.238451	3144.217773
4926.560937	1.412699	1.238451	4456.615234
4926.561862	1.376591	1.238451	5729.961426
4926.562790	0.949061	1.238451	6610.690430
4926.563676	0.111628	1.238451	6709.593262
4926.564609	0.091520	1.238451	6794.981445
4926.565516	0.091589	1.238451	6878.053223
4926.566414	0.091560	1.238451	6960.273926
4926.567304	0.091575	1.238451	7041.775391
4926.568244	0.091578	1.238451	7127.858887
4926.569150	0.091545	1.238451	7210.798828
4926.570045	0.091542	1.238451	7292.728516
4926.570969	0.091586	1.238451	7377.353516
4926.571874	0.091802	1.238451	7460.434082
4927.623621	1.031935	1.169248	449.923553
4927.624603	1.465455	1.169248	1889.000732
4927.625512	1.447361	1.169248	3204.651855
4927.626419	1.411703	1.169248	4485.066406
4927.627312	1.376448	1.169248	5714.234375
4927.628273	0.929004	1.169248	6607.007324
4927.629171	0.108153	1.169248	6704.128906
4927.630071	0.091516	1.169248	6786.493164
4927.631003	0.091600	1.169248	6871.864746
4927.631909	0.091604	1.169248	6954.857910
4927.632810	0.091622	1.169248	7037.409668
4927.633703	0.091630	1.169248	7119.234863
4927.634659	0.091747	1.169248	7206.944824
4927.635553	0.091608	1.169248	7288.842285
4927.636450	0.091641	1.169248	7371.043945
4927.637337	0.091633	1.169248	7452.322754
4928.649176	1.053669	1.280849	476.258606
4928.650073	1.464148	1.280849	1789.599365
4928.651013	1.449075	1.280849	3151.729492
4928.651918	1.413373	1.280849	4430.832031
4928.652819	1.378085	1.280849	5672.486328
4928.653715	1.026163	1.280849	6591.928711
4928.654671	0.114357	1.280849	6701.253906
4928.655574	0.091531	1.280849	6783.906250
4928.656475	0.091615	1.280849	6866.451172
4928.657394	0.091681	1.280849	6950.706055
4928.658315	0.091721	1.280849	7035.181152
4928.659226	0.091586	1.280849	7118.615723
4928.660121	0.091593	1.280849	7200.591309
4928.661050	0.091718	1.280849	7285.796875
4928.661947	0.091663	1.280849	7368.018066
4928.662852	0.091575	1.280849	7450.893066
4929.721357	1.082454	1.204291	545.556641
4929.722284	1.465983	1.204291	1904.522583
4929.723188	1.447002	1.204291	3212.612305
4929.724088	1.411110	1.204291	4482.610840
4929.725038	1.374701	1.204291	5788.576660
4929.725954	0.906086	1.204291	6618.551758
4929.726844	0.106311	1.204291	6713.168457
4929.727773	0.091578	1.204291	6798.244629
4929.728689	0.091619	1.204291	6882.167480
4929.729586	0.091655	1.204291	6964.382324
4929.730471	0.091688	1.204291	7045.526367
4929.731432	0.091622	1.204291	7133.575195
4929.732338	0.091567	1.204291	7216.535156
4929.733228	0.091578	1.204291	7298.040039
4929.734165	0.091666	1.204291	7383.931152
4929.735067	0.091600	1.204291	7466.554687
4930.749906	1.044489	1.275725	464.797394
4930.750857	1.464331	1.275725	1857.376221
4930.751775	1.447698	1.275725	3186.362793
4930.752679	1.412040	1.275725	4462.846680
4930.753595	1.376393	1.275725	5723.622559
4930.754508	0.958341	1.275725	6598.587891
4930.755470	0.105201	1.275725	6699.791504
4930.756375	0.091516	1.275725	6782.613770
4930.757269	0.091586	1.275725	6864.491211
4930.758196	0.091696	1.275725	6949.493164
4930.759097	0.091608	1.275725	7032.031738
4930.759996	0.091600	1.275725	7114.380371
4930.760886	0.091681	1.275725	7195.976562
4930.761828	0.091589	1.275725	7282.253906
4930.762723	0.091582	1.275725	7364.219727
4930.763633	0.091593	1.275725	7447.569336
4931.812320	1.066274	1.185563	486.221130
4931.813222	1.464551	1.185563	1807.246094
4931.814177	1.447800	1.185563	3189.895508
4931.815086	1.412040	1.185563	4473.439453
4931.815996	1.376558	1.185563	5726.106934
4931.816900	0.956510	1.185563	6590.791992
4931.817863	0.105549	1.185563	6692.436035
4931.818766	0.091564	1.185563	6775.118164
4931.819667	0.091567	1.185563	6857.620605
4931.820613	0.091739	1.185563	6944.406250
4931.821515	0.091714	1.185563	7027.132324
4931.822412	0.091549	1.185563	7109.251953
4931.823305	0.091659	1.185563	7191.103516
4931.824237	0.091674	1.185563	7276.543457
4931.825146	0.091622	1.185563	7359.828125
4931.826047	0.091600	1.185563	7442.359863
4932.844047	1.105184	1.245436	557.012878
4932.844962	1.465682	1.245436	1898.112305
4932.845873	1.447064	1.245436	3216.387695
4932.846769	1.411425	1.245436	4481.023926
4932.847700	1.375448	1.245436	5761.565918
4932.848633	0.919600	1.245436	6619.552246
4932.849530	0.107080	1.245436	6715.603027
4932.850465	0.091538	1.245436	6801.190918
4932.851369	0.091578	1.245436	6883.977539
4932.852270	0.091626	1.245436	6966.532715
4932.853159	0.091505	1.245436	7047.880859
4932.854110	0.091556	1.245436	7134.951172
4932.855015	0.091564	1.245436	7217.816406
4932.855913	0.091633	1.245436	7300.103027
4932.856799	0.091615	1.245436	7381.273926
4932.857726	0.091750	1.245436	7466.326660
4933.907928	1.050319	1.239796	468.442108
4933.908837	1.463826	1.239796	1799.059692
4933.909765	1.448606	1.239796	3143.365967
4933.910661	1.413545	1.239796	4409.902344
4933.911617	1.376243	1.239796	5725.590332
4933.912532	0.947684	1.239796	6592.721680
4933.913456	0.109003	1.239796	6693.439941
4933.914344	0.091403	1.239796	6774.605469
4933.915297	0.091531	1.239796	6861.834473
4933.916200	0.091472	1.239796	6944.433594
4933.917086	0.091479	1.239796	7025.484375
4933.918022	0.091534	1.239796	7111.160645
4933.918928	0.091494	1.239796	7194.054199
4933.919852	0.091538	1.239796	7278.635254
4933.920741	0.091619	1.239796	7360.084473
4933.921687	0.091542	1.239796	7446.683105
4934.939606	1.043456	1.296157	464.337860
4934.940551	1.465291	1.296157	1849.037476
4934.941463	1.448192	1.296157	3169.788574
4934.942373	1.412384	1.296157	4455.058105
4934.943268	1.376766	1.296157	5687.264160
4934.944242	0.934233	1.296157	6597.207520
4934.945153	0.108197	1.296157	6695.774902
4934.946049	0.091542	1.296157	6777.796387
4934.946997	0.091637	1.296157	6864.668457
4934.947897	0.091666	1.296157	6947.167969
4934.948801	0.091600	1.296157	7029.974609
4934.949689	0.091553	1.296157	7111.273437
4934.950620	0.091659	1.296157	7196.607910
4934.951523	0.091619	1.296157	7279.339355
4934.952428	0.091567	1.296157	7362.208008
4934.953314	0.091538	1.296157	7443.310547
4936.001492	1.040588	1.220871	464.102417
4936.002390	1.463474	1.220871	1778.302246
4936.003308	1.449595	1.220871	3109.030273
4936.004236	1.413256	1.220871	4420.531250
4936.005161	1.377048	1.220871	5694.300781
4936.006074	0.998584	1.220871	6606.007812
4936.007002	0.114016	1.220871	6711.814941
4936.007909	0.091615	1.220871	6794.909668
4936.008812	0.091564	1.220871	6877.591797
4936.009698	0.091512	1.220871	6958.671875
4936.010641	0.091593	1.220871	7045.043945
4936.011543	0.091600	1.220871	7127.667480
4936.012435	0.091622	1.220871	7209.394531
4936.013361	0.091575	1.220871	7294.192871
4936.014279	0.091582	1.220871	7378.265137
4936.015187	0.091604	1.220871	7461.441406
4937.033736	1.090983	1.267382	533.490479
4937.034648	1.465726	1.267382	1870.232910
4937.035567	1.447277	1.267382	3200.280273
4937.036465	1.411139	1.267382	4467.482910
4937.037431	1.374441	1.267382	5795.192871
4937.038350	0.902450	1.267382	6624.544434
4937.039261	0.104762	1.267382	6719.982422
4937.040152	0.091534	1.267382	6801.539551
4937.041090	0.091549	1.267382	6887.412598
4937.042004	0.091593	1.267382	6971.128418
4937.042920	0.091615	1.267382	7055.047852
4937.043810	0.091531	1.267382	7136.510254
4937.044756	0.091685	1.267382	7223.243652
4937.045651	0.091556	1.267382	7305.186523
4937.046540	0.091619	1.267382	7386.635742
4937.047455	0.091622	1.267382	7470.470215
4938.098664	1.054131	1.247337	478.575439
4938.099575	1.464430	1.247337	1812.671021
4938.100471	1.449133	1.247337	3111.094482
4938.101425	1.412336	1.247337	4458.463379
4938.102323	1.377154	1.247337	5695.147949
4938.103225	1.004055	1.247337	6600.805664
4938.104163	0.117458	1.247337	6710.981934
4938.105071	0.091542	1.247337	6794.102051
4938.105989	0.091589	1.247337	6878.181152
4938.106883	0.091542	1.247337	6960.019531
4938.107826	0.091633	1.247337	7046.429687
4938.108734	0.091571	1.247337	7129.576172
4938.109657	0.091674	1.247337	7214.190918
4938.110541	0.091630	1.247337	7295.191406
4938.111482	0.091644	1.247337	7381.428711
4938.112377	0.091586	1.247337	7463.397949
4939.130324	1.043049	1.294158	458.941711
4939.131246	1.464027	1.294158	1808.774658
4939.132151	1.449276	1.294158	3120.369629
4939.133086	1.412955	1.294158	4441.482910
4939.134005	1.376949	1.294158	5706.899414
4939.134932	0.968734	1.294158	6604.916016
4939.135825	0.113694	1.294158	6706.444824
4939.136766	0.091564	1.294158	6792.606445
4939.137669	0.091523	1.294158	6875.251953
4939.138564	0.091604	1.294158	6957.237305
4939.139450	0.091608	1.294158	7038.401855
4939.140395	0.091611	1.294158	7124.974609
4939.141305	0.091567	1.294158	7208.300781
4939.142203	0.091527	1.294158	7290.492187
4939.143135	0.091600	1.294158	7375.863770
4939.144041	0.091652	1.294158	7458.899902
4940.191199	1.049755	1.238753	476.588593
4940.192093	1.463892	1.238753	1785.307739
4940.193039	1.448720	1.238753	3155.796387
4940.193960	1.412080	1.238753	4456.322266
4940.194871	1.376744	1.238753	5710.536133
4940.195779	0.990817	1.238753	6610.197754
4940.196719	0.109080	1.238753	6712.732422
4940.197626	0.091589	1.238753	6795.804199
4940.198532	0.091626	1.238753	6878.817383
4940.199419	0.091575	1.238753	6960.043945
4940.200361	0.091644	1.238753	7046.373047
4940.201268	0.091586	1.238753	7129.441406
4940.202159	0.091520	1.238753	7210.985352
4940.203098	0.091531	1.238753	7296.932617
4940.204006	0.091626	1.238753	7380.128906
4940.204912	0.091600	1.238753	7463.118652
4941.225431	1.044507	1.272659	467.939026
4941.226328	1.463730	1.272659	1780.905273
4941.227280	1.448386	1.272659	3159.769043
4941.228201	1.411981	1.272659	4460.203613
4941.229100	1.377173	1.272659	5698.282227
4941.230059	0.941609	1.272659	6601.285156
4941.230976	0.107915	1.272659	6700.243164
4941.231882	0.091538	1.272659	6783.176758
4941.232776	0.091619	1.272659	6865.083984
4941.233716	0.091586	1.272659	6951.174316
4941.234624	0.091531	1.272659	7034.284180
4941.235514	0.091578	1.272659	7115.789062
4941.236404	0.091593	1.272659	7197.306641
4941.237343	0.091597	1.272659	7283.315918
4941.238250	0.091553	1.272659	7366.354492
4941.239140	0.091597	1.272659	7447.875488
4942.287826	1.044679	1.260421	466.971466
4942.288731	1.464031	1.260421	1791.919312
4942.289627	1.449836	1.260421	3090.972656
4942.290581	1.413047	1.260421	4439.019531
4942.291510	1.376576	1.260421	5717.858398
4942.292450	0.946794	1.260421	6607.845215
4942.293338	0.111544	1.260421	6706.896484
4942.294298	0.091648	1.260421	6794.878418
4942.295192	0.091633	1.260421	6876.798828
4942.296078	0.091732	1.260421	6958.073730
4942.297006	0.091622	1.260421	7043.099121
4942.297923	0.091589	1.260421	7127.086426
4942.298826	0.091571	1.260421	7209.774902
4942.299712	0.091703	1.260421	7291.023437
4942.300634	0.091622	1.260421	7375.499023
4942.301550	0.091586	1.260421	7459.391602
4943.321050	1.052640	1.328612	474.740784
4943.321951	1.464056	1.328612	1793.855469
4943.322845	1.449155	1.328612	3089.400391
4943.323807	1.412600	1.328612	4448.321777
4943.324709	1.377374	1.328612	5690.713379
4943.325615	1.013936	1.328612	6609.338867
4943.326562	0.118879	1.328612	6721.917480
4943.327459	0.091498	1.328612	6803.991211
4943.328357	0.091542	1.328612	6886.195801
4943.329282	0.091571	1.328612	6970.898926
4943.330203	0.091637	1.328612	7055.296387
4943.331114	0.091633	1.328612	7138.774414
4943.332010	0.091600	1.328612	7220.848145
4943.332937	0.091652	1.328612	7305.809082
4943.333836	0.091589	1.328612	7388.147949
4943.334736	0.091567	1.328612	7470.558594
4944.381915	1.061741	1.241669	482.030243
4944.382820	1.464474	1.241669	1807.379150
4944.383770	1.447954	1.241669	3182.935547
4944.384678	1.411945	1.241669	4464.981445
4944.385604	1.376199	1.241669	5739.341797
4944.386508	0.952321	1.241669	6600.239746
4944.387483	0.103799	1.241669	6701.443359
4944.388383	0.091472	1.241669	6783.768555
4944.389276	0.091663	1.241669	6865.623047
4944.390231	0.091615	1.241669	6953.115234
4944.391143	0.091516	1.241669	7036.578125
4944.392030	0.091600	1.241669	7117.827637
4944.392952	0.091626	1.241669	7202.306641
4944.393874	0.091534	1.241669	7286.701172
4944.394781	0.091487	1.241669	7369.679687
4944.395672	0.091582	1.241669	7451.279297
4945.415640	1.052128	1.295210	476.613800
4945.416535	1.463866	1.295210	1786.773682
4945.417526	1.446995	1.295210	3220.745361
4945.418437	1.411084	1.295210	4506.242676
4945.419330	1.376089	1.295210	5735.089844
4945.420284	0.903768	1.295210	6597.284668
4945.421199	0.105103	1.295210	6693.453613
4945.422117	0.091637	1.295210	6777.576172
4945.423011	0.091670	1.295210	6859.529297
4945.423973	0.091626	1.295210	6947.673340
4945.424873	0.091707	1.295210	7030.208984
4945.425760	0.091626	1.295210	7111.481445
4945.426688	0.091670	1.295210	7196.551270
4945.427601	0.091571	1.295210	7280.155762
4945.428506	0.091703	1.295210	7363.146973
4945.429389	0.091553	1.295210	7443.988281
4946.478543	1.037468	1.244703	454.411133
4946.479445	1.463372	1.244703	1774.372314
4946.480418	1.447438	1.244703	3182.729248
4946.481335	1.411490	1.244703	4477.065918
4946.482236	1.376345	1.244703	5717.152832
4946.483177	0.927726	1.244703	6590.142578
4946.484103	0.106860	1.244703	6689.095215
4946.485000	0.091545	1.244703	6771.211426
4946.485885	0.091512	1.244703	6852.200195
4946.486827	0.091571	1.244703	6938.459961
4946.487734	0.091527	1.244703	7021.475098
4946.488625	0.091655	1.244703	7103.140137
4946.489559	0.091710	1.244703	7188.797363
4946.490471	0.091545	1.244703	7272.286621
4946.491371	0.091593	1.244703	7354.720215
4946.492261	0.091582	1.244703	7436.228027
4947.511242	1.031906	1.318864	449.910797
4947.512166	1.462972	1.318864	1801.697266
4947.513108	1.448207	1.318864	3165.908203
4947.514023	1.412047	1.318864	4457.931641
4947.514928	1.376766	1.318864	5703.905273
4947.515882	0.948256	1.318864	6608.541016
4947.516788	0.108779	1.318864	6707.095215
4947.517692	0.091527	1.318864	6789.835937
4947.518579	0.091509	1.318864	6871.004395
4947.519529	0.091663	1.318864	6958.083984
4947.520435	0.091615	1.318864	7041.086914
4947.521326	0.091615	1.318864	7122.715820
4947.522250	0.091531	1.318864	7207.290039
4947.523164	0.091567	1.318864	7290.982422
4947.524066	0.091564	1.318864	7373.572754
4947.524967	0.091564	1.318864	7456.071777
4948.572634	1.052369	1.279874	468.304413
4948.573559	1.464708	1.279874	1823.159668
4948.574472	1.448720	1.279874	3145.840576
4948.575390	1.412340	1.279874	4442.368652
4948.576337	1.375979	1.279874	5745.420898
4948.577258	0.945223	1.279874	6615.971680
4948.578145	0.111127	1.279874	6714.541016
4948.579089	0.091659	1.279874	6801.066895
4948.580001	0.091586	1.279874	6884.593262
4948.580898	0.091611	1.279874	6966.768555
4948.581789	0.091666	1.279874	7048.443359
4948.582720	0.091729	1.279874	7133.842773
4948.583627	0.091619	1.279874	7216.940918
4948.584520	0.091586	1.279874	7298.727051
4948.585440	0.091600	1.279874	7382.999512
4948.586342	0.091593	1.279874	7465.616211
4949.605331	1.042559	1.302376	462.895996
4949.606288	1.463112	1.302376	1863.093750
4949.607204	1.447343	1.302376	3188.859375
4949.608116	1.411370	1.302376	4476.028320
4949.609015	1.376583	1.302376	5713.576660
4949.609972	0.930699	1.302376	6604.255859
4949.610885	0.106626	1.302376	6701.605469
4949.611804	0.091501	1.302376	6785.695312
4949.612694	0.091604	1.302376	6867.222656
4949.613634	0.091556	1.302376	6953.285645
4949.614530	0.091586	1.302376	7035.346191
4949.615418	0.091655	1.302376	7116.735840
4949.616360	0.091663	1.302376	7203.082031
4949.617256	0.091545	1.302376	7285.106934
4949.618162	0.091604	1.302376	7368.100098
4949.619093	0.091666	1.302376	7453.441406
4950.668820	1.086460	1.271680	553.008057
4950.669727	1.466228	1.271680	1882.876831
4950.670641	1.447050	1.271680	3205.480225
4950.671535	1.411575	1.271680	4467.427734
4950.672487	1.374836	1.271680	5776.271973
4950.673414	0.904592	1.271680	6614.829102
4950.674311	0.105374	1.271680	6709.349121
4950.675236	0.091637	1.271680	6794.113281
4950.676149	0.091703	1.271680	6877.837891
4950.677060	0.091622	1.271680	6961.305664
4950.677949	0.091619	1.271680	7042.754883
4950.678884	0.091597	1.271680	7128.397949
4950.679789	0.091516	1.271680	7211.220215
4950.680688	0.091589	1.271680	7293.559082
4950.681578	0.091604	1.271680	7375.086426
4950.682528	0.091666	1.271680	7462.169434
4951.700976	1.056581	1.321643	501.875885
4951.701882	1.465247	1.321643	1829.389282
4951.702831	1.447504	1.321643	3203.070312
4951.703749	1.410780	1.321643	4498.166504
4951.704651	1.375748	1.321643	5739.091309
4951.705592	0.920739	1.321643	6605.506348
4951.706505	0.106567	1.321643	6702.802246
4951.707403	0.091465	1.321643	6784.937500
4951.708290	0.091512	1.321643	6866.108887
4951.709219	0.091637	1.321643	6951.239746
4951.710125	0.091545	1.321643	7034.179687
4951.711025	0.091545	1.321643	7116.570312
4951.711917	0.091637	1.321643	7198.310547
4951.712867	0.091750	1.321643	7285.473633
4951.713772	0.091553	1.321643	7368.329102
4951.714659	0.091545	1.321643	7449.529785
4952.763863	1.046041	1.281763	471.764618
4952.764759	1.463254	1.281763	1782.840576
4952.765713	1.447705	1.281763	3163.951172
4952.766644	1.411439	1.281763	4478.000977
4952.767548	1.376279	1.281763	5722.157227
4952.768506	0.922024	1.281763	6605.456055
4952.769410	0.106414	1.281763	6701.653809
4952.770313	0.091597	1.281763	6784.365723
4952.771201	0.091677	1.281763	6865.774902
4952.772138	0.091644	1.281763	6951.645508
4952.773045	0.091641	1.281763	7034.763672
4952.773945	0.091600	1.281763	7117.204102
4952.774830	0.091586	1.281763	7198.257324
4952.775767	0.091718	1.281763	7284.196777
4952.776676	0.091641	1.281763	7367.498047
4952.777576	0.091575	1.281763	7449.915039
4953.795069	1.069167	1.315283	521.753723
4953.795993	1.465931	1.315283	1876.274414
4953.796907	1.447035	1.315283	3198.864258
4953.797805	1.411582	1.315283	4466.464844
4953.798761	1.374580	1.315283	5780.563477
4953.799680	0.903633	1.315283	6611.001953
4953.800585	0.105472	1.315283	6706.454590
4953.801479	0.091523	1.315283	6788.276367
4953.802407	0.091685	1.315283	6873.359863
4953.803313	0.091545	1.315283	6956.299805
4953.804202	0.091597	1.315283	7037.729492
4953.805131	0.091769	1.315283	7122.982910
4953.806039	0.091659	1.315283	7206.208984
4953.806940	0.091626	1.315283	7288.764160
4953.807828	0.091622	1.315283	7370.125000
4953.808788	0.091674	1.315283	7458.131836
4954.859990	1.047220	1.280208	469.154785
4954.860885	1.463562	1.280208	1779.042725
4954.861833	1.448295	1.280208	3152.025879
4954.862753	1.412421	1.280208	4451.453125
4954.863660	1.376884	1.280208	5700.286621
4954.864567	0.978505	1.280208	6587.790527
4954.865522	0.107919	1.280208	6690.853027
4954.866427	0.091505	1.280208	6773.665039
4954.867326	0.091619	1.280208	6856.030273
4954.868255	0.091641	1.280208	6941.164551
4954.869150	0.091553	1.280208	7023.104492
4954.870043	0.091666	1.280208	7104.962402
4954.870928	0.091648	1.280208	7186.070801
4954.871870	0.091655	1.280208	7272.410156
4954.872774	0.091655	1.280208	7355.266602
4954.873676	0.091593	1.280208	7437.883301
4955.889633	1.064817	1.336218	487.686157
4955.890533	1.464283	1.336218	1805.541260
4955.891485	1.448474	1.336218	3184.488770
4955.892397	1.411941	1.336218	4472.178711
4955.893299	1.376605	1.336218	5713.876953
4955.894201	0.996438	1.336218	6612.664062
4955.895147	0.109501	1.336218	6716.251953
4955.896051	0.091523	1.336218	6798.989258
4955.896959	0.091567	1.336218	6882.132324
4955.897852	0.091615	1.336218	6963.944336
4955.898801	0.091655	1.336218	7050.925293
4955.899709	0.091608	1.336218	7134.104980
4955.900604	0.091615	1.336218	7216.100586
4955.901545	0.091619	1.336218	7302.313965
4955.902448	0.091648	1.336218	7385.072266
4955.903343	0.091655	1.336218	7467.103516
4956.956124	1.046748	1.284136	474.176849
4956.957023	1.463877	1.284136	1790.202271
4956.957970	1.448745	1.284136	3162.164062
4956.958891	1.412194	1.284136	4462.794434
4956.959801	1.376213	1.284136	5715.148437
4956.960717	0.969272	1.284136	6603.001953
4956.961652	0.108988	1.284136	6704.905762
4956.962558	0.091545	1.284136	6787.845703
4956.963461	0.091626	1.284136	6870.583984
4956.964350	0.091582	1.284136	6952.000488
4956.965288	0.091611	1.284136	7037.932129
4956.966198	0.091556	1.284136	7121.248535
4956.967091	0.091611	1.284136	7203.057617
4956.968035	0.091681	1.284136	7289.604492
4956.968934	0.091725	1.284136	7372.064941
4956.969841	0.091615	1.284136	7455.159668
4957.985750	1.049052	1.334707	469.975098
4957.986654	1.463921	1.334707	1793.359497
4957.987545	1.449789	1.334707	3085.121338
4957.988515	1.412399	1.334707	4455.147949
4957.989423	1.376990	1.334707	5705.454590
4957.990333	0.994596	1.334707	6610.537109
4957.991281	0.115961	1.334707	6720.467773
4957.992178	0.091666	1.334707	6802.692383
4957.993076	0.091608	1.334707	6884.956055
4957.993970	0.091699	1.334707	6966.935059
4957.994897	0.091688	1.334707	7051.930176
4957.995799	0.091633	1.334707	7134.583496
4957.996700	0.091622	1.334707	7217.135254
4957.997589	0.091637	1.334707	7298.600586
4957.998537	0.091663	1.334707	7385.496582
4957.999446	0.091589	1.334707	7468.751465
4959.050194	1.036377	1.267660	461.187744
4959.051091	1.463496	1.267660	1773.943726
4959.052048	1.448932	1.267660	3160.571533
4959.052959	1.412318	1.267660	4447.193359
4959.053880	1.376602	1.267660	5715.043457
4959.054784	0.991128	1.267660	6611.022949
4959.055744	0.108743	1.267660	6715.416016
4959.056638	0.091490	1.267660	6797.208496
4959.057554	0.091593	1.267660	6881.107910
4959.058446	0.091611	1.267660	6962.825195
4959.059405	0.091538	1.267660	7050.610352
4959.060308	0.091575	1.267660	7133.302246
4959.061198	0.091454	1.267660	7214.696289
4959.062134	0.091619	1.267660	7300.451172
4959.063048	0.091501	1.267660	7384.083496
4959.063940	0.091604	1.267660	7465.794434
4960.079333	1.060565	1.351937	487.859955
4960.080231	1.464434	1.351937	1802.921265
4960.081193	1.448057	1.351937	3195.951660
4960.082104	1.411245	1.351937	4481.595703
4960.083016	1.375748	1.351937	5736.278320
4960.083922	0.961047	1.351937	6606.987305
4960.084862	0.106571	1.351937	6707.164062
4960.085773	0.091600	1.351937	6790.611816
4960.086667	0.091670	1.351937	6872.564941
4960.087580	0.091619	1.351937	6956.212891
4960.088495	0.091758	1.351937	7040.171387
4960.089406	0.091685	1.351937	7123.695801
4960.090299	0.091655	1.351937	7205.543945
4960.091245	0.091729	1.351937	7292.319336
4960.092144	0.091758	1.351937	7374.809570
4960.093041	0.091659	1.351937	7457.027832
4961.145815	1.039889	1.263201	466.910095
4961.146709	1.463833	1.263201	1775.576660
4961.147663	1.448430	1.263201	3157.378906
4961.148583	1.411952	1.263201	4456.374512
4961.149493	1.376697	1.263201	5709.168457
4961.150398	0.992040	1.263201	6606.964355
4961.151339	0.109255	1.263201	6709.773437
4961.152247	0.091527	1.263201	6792.879883
4961.153151	0.091630	1.263201	6875.712891
4961.154039	0.091666	1.263201	6957.112305
4961.154979	0.091714	1.263201	7043.323242
4961.155888	0.091688	1.263201	7126.667969
4961.156774	0.091648	1.263201	7207.868164
4961.157698	0.091802	1.263201	7292.692871
4961.158603	0.091619	1.263201	7375.607910
4961.159507	0.091589	1.263201	7458.404785
4962.174938	1.055449	1.348915	473.896698
4962.175866	1.464426	1.348915	1832.884277
4962.176773	1.448536	1.348915	3146.706787
4962.177704	1.412245	1.348915	4461.506836
4962.178618	1.376539	1.348915	5719.663574
4962.179538	0.971118	1.348915	6613.092285
4962.180424	0.114558	1.348915	6714.590820
4962.181372	0.091633	1.348915	6801.458984
4962.182278	0.091718	1.348915	6884.555176
4962.183167	0.091644	1.348915	6966.026855
4962.184092	0.091652	1.348915	7050.804687
4962.185008	0.091747	1.348915	7134.844727
4962.185916	0.091648	1.348915	7218.061035
4962.186813	0.091626	1.348915	7300.249512
4962.187738	0.091714	1.348915	7385.084961
4962.188647	0.091692	1.348915	7468.433105
4963.240397	1.040537	1.287733	456.795807
4963.241366	1.465719	1.287733	1877.077515
4963.242285	1.447123	1.287733	3206.983398
4963.243193	1.411293	1.287733	4488.437500
4963.244134	1.375261	1.287733	5782.558105
4963.245053	0.916110	1.287733	6624.462891
4963.245949	0.107406	1.287733	6720.698730
4963.246836	0.091501	1.287733	6801.860352
4963.247795	0.091670	1.287733	6889.771973
4963.248691	0.091593	1.287733	6971.839355
4963.249595	0.091655	1.287733	7054.695801
4963.250483	0.091600	1.287733	7136.037109
4963.251441	0.091655	1.287733	7223.842773
4963.252349	0.091469	1.287733	7306.895996
4963.253245	0.091575	1.287733	7388.946777
4963.254176	0.091622	1.287733	7474.247070
4964.270595	1.057335	1.348585	521.266296
4964.271527	1.466188	1.348585	1887.753418
4964.272440	1.446738	1.348585	3208.625488
4964.273335	1.411392	1.348585	4471.821289
4964.274288	1.374694	1.348585	5781.904297
4964.275207	0.906899	1.348585	6615.344727
4964.276113	0.105879	1.348585	6711.270996
4964.276998	0.091545	1.348585	6792.288574
4964.277936	0.091674	1.348585	6878.278320
4964.278838	0.091600	1.348585	6960.901855
4964.279739	0.091655	1.348585	7043.483398
4964.280669	0.091641	1.348585	7128.708984
4964.281573	0.091641	1.348585	7211.552246
4964.282476	0.091564	1.348585	7294.234375
4964.283361	0.091586	1.348585	7375.287598
4964.284316	0.091626	1.348585	7462.790527
4965.335050	1.096564	1.268651	547.185303
4965.335974	1.465664	1.268651	1901.458862
4965.336903	1.446423	1.268651	3245.186035
4965.337799	1.410432	1.268651	4508.933105
4965.338759	1.373639	1.268651	5827.626465
4965.339673	0.877471	1.268651	6629.634766
4965.340561	0.104268	1.268651	6722.224609
4965.341500	0.091582	1.268651	6808.220215
4965.342411	0.091732	1.268651	6891.788086
4965.343303	0.091692	1.268651	6973.577148
4965.344225	0.091648	1.268651	7058.076660
4965.345147	0.091769	1.268651	7142.687500
4965.346053	0.091630	1.268651	7225.704102
4965.346944	0.091681	1.268651	7307.391602
4965.347883	0.091802	1.268651	7393.593262
4965.348797	0.091663	1.268651	7477.373047
4966.367247	1.088009	1.328673	550.532532
4966.368166	1.465964	1.328673	1897.753662
4966.369074	1.446790	1.328673	3211.438477
4966.369967	1.411366	1.328673	4471.788086
4966.370917	1.374631	1.328673	5777.687988
4966.371843	0.907050	1.328673	6617.615723
4966.372741	0.105699	1.328673	6712.533691
4966.373662	0.091527	1.328673	6796.830078
4966.374575	0.091604	1.328673	6880.464355
4966.375481	0.091520	1.328673	6963.381348
4966.376375	0.091578	1.328673	7045.252441
4966.377313	0.091688	1.328673	7131.255859
4966.378223	0.091648	1.328673	7214.655273
4966.379125	0.091578	1.328673	7297.258789
4966.380011	0.091553	1.328673	7378.374512
4966.380943	0.091739	1.328673	7463.875488
4967.429082	1.047788	1.298726	471.504669
4967.429977	1.463657	1.298726	1781.477783
4967.430871	1.449595	1.298726	3077.415527
4967.431839	1.412655	1.298726	4444.865723
4967.432739	1.377396	1.298726	5684.522461
4967.433634	1.028075	1.298726	6604.649414
4967.434584	0.121201	1.298726	6719.790527
4967.435485	0.091516	1.298726	6802.246582
4967.436402	0.091589	1.298726	6886.233887
4967.437299	0.091593	1.298726	6968.392578
4967.438228	0.091626	1.298726	7053.513184
4967.439148	0.091575	1.298726	7137.761719
4967.440060	0.091582	1.298726	7221.284668
4967.440945	0.091509	1.298726	7302.270020
4967.441891	0.091619	1.298726	7388.941406
4967.442794	0.091648	1.298726	7471.699707
4968.462298	1.045422	1.355353	468.349182
4968.463192	1.463489	1.355353	1776.708252
4968.464147	1.448353	1.355353	3159.885742
4968.465063	1.412611	1.355353	4453.837402
4968.465960	1.377103	1.355353	5689.099121
4968.466911	0.962058	1.355353	6604.016602
4968.467815	0.110940	1.355353	6704.306152
4968.468715	0.091586	1.355353	6786.733398
4968.469608	0.091600	1.355353	6868.532715
4968.470548	0.091677	1.355353	6954.709473
4968.471439	0.091659	1.355353	7036.377441
4968.472339	0.091721	1.355353	7118.926758
4968.473223	0.091571	1.355353	7199.875488
4968.474159	0.091703	1.355353	7285.709473
4968.475062	0.091586	1.355353	7368.411133
4968.475962	0.091637	1.355353	7450.884277
4969.523725	1.101742	1.285308	557.481384
4969.524640	1.465906	1.285308	1898.785156
4969.525542	1.447244	1.285308	3204.198975
4969.526440	1.411355	1.285308	4471.595703
4969.527392	1.374829	1.285308	5780.433105
4969.528322	0.905471	1.285308	6622.521484
4969.529227	0.105051	1.285308	6717.592773
4969.530160	0.091659	1.285308	6803.110352
4969.531064	0.091681	1.285308	6885.989746
4969.531963	0.091630	1.285308	6968.364746
4969.532850	0.091586	1.285308	7049.601074
4969.533798	0.091644	1.285308	7136.479980
4969.534693	0.091641	1.285308	7218.498535
4969.535586	0.091615	1.285308	7300.310547
4969.536474	0.091637	1.285308	7381.684082
4969.537418	0.091710	1.285308	7468.258301
4970.557404	1.050637	1.354591	467.533569
4970.558335	1.464580	1.354591	1831.057617
4970.559231	1.448925	1.354591	3129.293945
4970.560127	1.413713	1.354591	4395.980957
4970.561078	1.377235	1.354591	5705.731445
4970.561989	0.983090	1.354591	6601.326172
4970.562905	0.112526	1.354591	6704.399414
4970.563803	0.091538	1.354591	6786.600586
4970.564752	0.091520	1.354591	6873.452637
4970.565659	0.091516	1.354591	6956.457520
4970.566554	0.091600	1.354591	7038.439941
4970.567476	0.091538	1.354591	7122.837891
4970.568394	0.091553	1.354591	7206.883301
4970.569291	0.091586	1.354591	7289.035645
4970.570178	0.091600	1.354591	7370.285156
4970.571120	0.091531	1.354591	7456.507324
4971.618772	1.046173	1.287290	468.685547
4971.619667	1.463324	1.287290	1778.360474
4971.620611	1.448408	1.287290	3145.657715
4971.621531	1.412303	1.287290	4444.977051
4971.622438	1.377052	1.287290	5693.962891
4971.623382	0.964988	1.287290	6604.911133
4971.624287	0.111050	1.287290	6705.411133
4971.625189	0.091619	1.287290	6788.051270
4971.626079	0.091633	1.287290	6869.604980
4971.627021	0.091692	1.287290	6955.978516
4971.627928	0.091633	1.287290	7039.089844
4971.628824	0.091648	1.287290	7121.206543
4971.629731	0.091608	1.287290	7204.294922
4971.630650	0.091615	1.287290	7288.489258
4971.631558	0.091597	1.287290	7371.659180
4971.632454	0.091622	1.287290	7453.752930
4972.654039	1.044024	1.336895	462.502411
4972.654942	1.463643	1.336895	1784.171753
4972.655874	1.448921	1.336895	3134.565918
4972.656776	1.413431	1.336895	4409.480957
4972.657716	1.377070	1.336895	5703.926758
4972.658652	0.948545	1.336895	6591.764648
4972.659577	0.108073	1.336895	6691.731934
4972.660464	0.091512	1.336895	6772.903320
4972.661426	0.091564	1.336895	6860.987793
4972.662322	0.091619	1.336895	6943.078125
4972.663216	0.091626	1.336895	7024.991699
4972.664153	0.091571	1.336895	7110.793945
4972.665046	0.091531	1.336895	7192.530762
4972.665963	0.091527	1.336895	7276.460937
4972.666862	0.091545	1.336895	7358.760254
4972.667797	0.091553	1.336895	7444.362305
4973.712860	1.043145	1.302698	463.156189
4973.713759	1.463269	1.302698	1778.635010
4973.714734	1.447529	1.302698	3189.976074
4973.715634	1.412084	1.302698	4460.851562
4973.716530	1.376906	1.302698	5694.559082
4973.717477	0.949325	1.302698	6593.569824
4973.718392	0.108944	1.302698	6693.253906
4973.719301	0.091520	1.302698	6776.445312
4973.720200	0.091549	1.302698	6858.748047
4973.721156	0.091586	1.302698	6946.304199
4973.722059	0.091575	1.302698	7028.996094
4973.722946	0.091498	1.302698	7110.154785
4973.723894	0.091619	1.302698	7197.009277
4973.724802	0.091542	1.302698	7280.129395
4973.725703	0.091556	1.302698	7362.621582
4973.726593	0.091527	1.302698	7444.080566
4974.747601	1.044954	1.365995	463.959381
4974.748508	1.463822	1.365995	1791.645874
4974.749432	1.448994	1.365995	3130.516602
4974.750367	1.412373	1.365995	4451.085449
4974.751286	1.376451	1.365995	5716.044434
4974.752194	0.984840	1.365995	6610.279297
4974.753141	0.112035	1.365995	6716.376465
4974.754043	0.091619	1.365995	6799.016602
4974.754936	0.091490	1.365995	6880.717773
4974.755828	0.091608	1.365995	6962.431641
4974.756769	0.091758	1.365995	7048.775879
4974.757675	0.091578	1.365995	7131.746094
4974.758576	0.091619	1.365995	7214.294434
4974.759495	0.091600	1.365995	7298.475098
4974.760406	0.091556	1.365995	7381.882812
4974.761316	0.091520	1.365995	7465.166016
4975.807952	1.043101	1.308878	464.179779
4975.808850	1.463558	1.308878	1778.455200
4975.809831	1.447661	1.308878	3198.610840
4975.810739	1.411487	1.308878	4480.240723
4975.811649	1.376217	1.308878	5732.598145
4975.812552	0.944531	1.308878	6585.509766
4975.813489	0.107542	1.308878	6686.276367
4975.814396	0.091476	1.308878	6769.245117
4975.815293	0.091487	1.308878	6851.308594
4975.816221	0.091666	1.308878	6936.375000
4975.817132	0.091718	1.308878	7019.929687
4975.818036	0.091637	1.308878	7102.769531
4975.818924	0.091516	1.308878	7184.035645
4975.819873	0.091714	1.308878	7271.072266
4975.820774	0.091611	1.308878	7353.614258
4975.821677	0.091531	1.308878	7436.266602
4976.843267	1.075895	1.330860	534.719666
4976.844196	1.465345	1.330860	1896.025635
4976.845098	1.446943	1.330860	3201.168457
4976.845997	1.411315	1.330860	4469.940430
4976.846946	1.374781	1.330860	5774.607910
4976.847863	0.916824	1.330860	6615.334961
4976.848754	0.107648	1.330860	6711.249023
4976.849698	0.091520	1.330860	6797.643555
4976.850599	0.091545	1.330860	6880.125977
4976.851504	0.091534	1.330860	6962.964844
4976.852391	0.091425	1.330860	7044.058594
4976.853347	0.091633	1.330860	7131.660156
4976.854254	0.091567	1.330860	7214.711914
4976.855147	0.091611	1.330860	7296.520996
4976.856095	0.091608	1.330860	7383.365234
4976.856988	0.091589	1.330860	7465.154297
4977.903581	1.048982	1.326538	469.943909
4977.904480	1.463826	1.326538	1785.923096
4977.905377	1.449987	1.326538	3086.561035
4977.906324	1.412959	1.326538	4424.633301
4977.907234	1.377535	1.326538	5678.190430
4977.908152	0.984239	1.326538	6581.722168
4977.909088	0.110859	1.326538	6685.486328
4977.909987	0.091578	1.326538	6767.815430
4977.910948	0.091520	1.326538	6855.766113
4977.911843	0.091534	1.326538	6937.689453
4977.912733	0.091582	1.326538	7019.197266
4977.913673	0.091604	1.326538	7105.305176
4977.914575	0.091560	1.326538	7187.892578
4977.915487	0.091586	1.326538	7271.418945
4977.916382	0.091608	1.326538	7353.407715
4977.917326	0.091622	1.326538	7439.899414
4978.938323	1.032491	1.336565	451.198761
4978.939284	1.463555	1.336565	1857.674683
4978.940206	1.447712	1.336565	3192.465576
4978.941115	1.411718	1.336565	4475.716797
4978.942011	1.376653	1.336565	5709.197754
4978.942971	0.947249	1.336565	6618.556152
4978.943875	0.109750	1.336565	6717.770020
4978.944776	0.091505	1.336565	6800.216309
4978.945693	0.091626	1.336565	6884.237305
4978.946594	0.091674	1.336565	6966.834961
4978.947550	0.091545	1.336565	7054.352539
4978.948456	0.091582	1.336565	7137.325684
4978.949344	0.091677	1.336565	7218.734863
4978.950286	0.091666	1.336565	7305.084473
4978.951202	0.091589	1.336565	7388.980469
4978.952118	0.091604	1.336565	7472.889648
4979.997659	1.047817	1.302034	469.422180
4979.998551	1.463236	1.302034	1774.628662
4979.999517	1.447980	1.302034	3173.377197
4980.000422	1.411978	1.302034	4451.216797
4980.001331	1.376755	1.302034	5702.687500
4980.002256	0.945293	1.302034	6577.083496
4980.003198	0.106776	1.302034	6677.666504
4980.004107	0.091538	1.302034	6760.874512
4980.005004	0.091553	1.302034	6842.997070
4980.005895	0.091527	1.302034	6924.547852
4980.006841	0.091549	1.302034	7011.153320
4980.007756	0.091509	1.302034	7094.883789
4980.008670	0.091523	1.302034	7178.536133
4980.009555	0.091589	1.302034	7259.592773
4980.010504	0.091538	1.302034	7346.462402
4980.011397	0.091549	1.302034	7428.215820
4981.033420	1.043331	1.331005	462.195740
4981.034326	1.463873	1.331005	1788.464844
4981.035225	1.449445	1.331005	3091.515625
4981.036189	1.412435	1.331005	4453.103516
4981.037104	1.376759	1.331005	5712.837891
4981.038012	0.986733	1.331005	6608.791992
4981.038959	0.115177	1.331005	6717.864746
4981.039857	0.091655	1.331005	6800.171387
4981.040752	0.091593	1.331005	6882.146973
4981.041638	0.091699	1.331005	6963.392578
4981.042574	0.091644	1.331005	7049.171875
4981.043477	0.091652	1.331005	7131.933105
4981.044374	0.091615	1.331005	7214.111816
4981.045260	0.091512	1.331005	7295.191895
4981.046203	0.091688	1.331005	7381.653809
4981.047110	0.091560	1.331005	7464.698730
4982.093272	1.052509	1.313651	471.523865
4982.094181	1.464075	1.313651	1802.367676
4982.095078	1.449342	1.313651	3102.427490
4982.096021	1.412798	1.313651	4434.695801
4982.096937	1.377136	1.313651	5696.152344
4982.097843	1.008428	1.313651	6609.788086
4982.098782	0.118125	1.313651	6720.707520
4982.099696	0.091545	1.313651	6804.379883
4982.100604	0.091553	1.313651	6887.509766
4982.101496	0.091553	1.313651	6969.174805
4982.102434	0.091538	1.313651	7055.037598
4982.103329	0.091604	1.313651	7137.022949
4982.104232	0.091582	1.313651	7219.721680
4982.105121	0.091479	1.313651	7301.046875
4982.106061	0.091648	1.313651	7387.195801
4982.106973	0.091633	1.313651	7470.765137
4983.128011	1.039314	1.340250	456.258820
4983.128987	1.464950	1.340250	1886.049927
4983.129892	1.447306	1.340250	3195.861816
4983.130798	1.411685	1.340250	4474.848145
4983.131692	1.376334	1.340250	5705.291016
4983.132649	0.932732	1.340250	6597.915527
4983.133564	0.107640	1.340250	6696.406250
4983.134465	0.091469	1.340250	6778.819336
4983.135398	0.091600	1.340250	6864.282227
4983.136302	0.091666	1.340250	6947.148437
4983.137204	0.091637	1.340250	7029.805176
4983.138091	0.091648	1.340250	7111.096680
4983.139031	0.091699	1.340250	7197.293945
4983.139929	0.091721	1.340250	7279.659668
4983.140828	0.091670	1.340250	7362.070801
4983.141713	0.091681	1.340250	7443.208496
4984.187855	1.038732	1.306731	457.041931
4984.188797	1.464115	1.306731	1836.238281
4984.189712	1.448375	1.306731	3161.501465
4984.190619	1.412626	1.306731	4442.752930
4984.191512	1.377499	1.306731	5672.859375
4984.192485	0.948505	1.306731	6595.754395
4984.193395	0.109585	1.306731	6695.476562
4984.194283	0.091512	1.306731	6776.739746
4984.195203	0.091575	1.306731	6860.988281
4984.196128	0.091666	1.306731	6945.779785
4984.197035	0.091589	1.306731	7028.851562
4984.197932	0.091637	1.306731	7111.049805
4984.198856	0.091622	1.306731	7195.708984
4984.199764	0.091578	1.306731	7278.862305
4984.200661	0.091589	1.306731	7361.018066
4984.201550	0.091608	1.306731	7442.457520
4985.223644	1.051772	1.343235	470.142303
4985.224555	1.464390	1.343235	1804.201294
4985.225453	1.449609	1.343235	3105.950684
4985.226400	1.412472	1.343235	4443.561523
4985.227328	1.376096	1.343235	5720.579102
4985.228253	0.962388	1.343235	6610.787598
4985.229144	0.112196	1.343235	6710.754395
4985.230106	0.091458	1.343235	6798.736328
4985.231008	0.091615	1.343235	6881.373047
4985.231896	0.091586	1.343235	6962.701172
4985.232836	0.091725	1.343235	7048.922363
4985.233732	0.091633	1.343235	7131.025879
4985.234625	0.091615	1.343235	7212.837891
4985.235542	0.091721	1.343235	7296.946289
4985.236461	0.091556	1.343235	7381.086426
4985.237367	0.091611	1.343235	7464.086426
4986.283493	1.059800	1.292136	484.328491
4986.284393	1.464031	1.292136	1801.956177
4986.285289	1.449738	1.292136	3100.920898
4986.286237	1.412563	1.292136	4440.031250
4986.287155	1.376371	1.292136	5703.539551
4986.288089	0.965984	1.292136	6605.768555
4986.288989	0.112068	1.292136	6706.629883
4986.289951	0.091494	1.292136	6794.647461
4986.290854	0.091663	1.292136	6877.418945
4986.291738	0.091512	1.292136	6958.315918
4986.292692	0.091622	1.292136	7045.723633
4986.293592	0.091619	1.292136	7128.180664
4986.294482	0.091641	1.292136	7209.740723
4986.295375	0.091578	1.292136	7291.520020
4986.296298	0.091586	1.292136	7376.053711
4986.297209	0.091644	1.292136	7459.541504
4987.318266	1.048689	1.363449	513.857605
4987.319192	1.465975	1.363449	1871.350830
4987.320107	1.446896	1.363449	3195.260254
4987.321008	1.411249	1.363449	4466.795410
4987.321952	1.375272	1.363449	5765.052246
4987.322872	0.912964	1.363449	6604.979004
4987.323772	0.106897	1.363449	6701.186523
4987.324657	0.091586	1.363449	6782.239746
4987.325594	0.091670	1.363449	6868.134277
4987.326498	0.091630	1.363449	6950.967285
4987.327396	0.091688	1.363449	7033.303223
4987.328326	0.091652	1.363449	7118.539062
4987.329237	0.091776	1.363449	7202.146973
4987.330138	0.091622	1.363449	7284.698730
4987.331027	0.091633	1.363449	7366.160645
4987.331966	0.091703	1.363449	7452.269531
4988.378637	1.104617	1.306074	540.157532
4988.379558	1.465822	1.306074	1890.179199
4988.380462	1.447372	1.306074	3198.603516
4988.381371	1.411553	1.306074	4481.705078
4988.382300	1.375734	1.306074	5759.761719
4988.383219	0.943356	1.306074	6626.705566
4988.384113	0.110039	1.306074	6725.080566
4988.385043	0.091571	1.306074	6810.241699
4988.385949	0.091600	1.306074	6893.231445
4988.386854	0.091641	1.306074	6976.166016
4988.387743	0.091505	1.306074	7057.514160
4988.388698	0.091633	1.306074	7145.023926
4988.389597	0.091615	1.306074	7227.385742
4988.390491	0.091593	1.306074	7309.270020
4988.391395	0.091523	1.306074	7392.007324
4988.392304	0.091630	1.306074	7475.298828
4989.413331	1.033693	1.340552	455.858429
4989.414235	1.463602	1.340552	1778.954834
4989.415212	1.447386	1.340552	3193.051270
4989.416118	1.411718	1.340552	4472.067383
4989.417026	1.376345	1.340552	5721.789062
4989.417935	0.954858	1.340552	6589.755371
4989.418865	0.109479	1.340552	6691.570801
4989.419775	0.091604	1.340552	6774.930664
4989.420663	0.091578	1.340552	6856.252441
4989.421591	0.091600	1.340552	6941.257324
4989.422500	0.091593	1.340552	7024.515137
4989.423410	0.091600	1.340552	7107.871582
4989.424297	0.091589	1.340552	7189.111328
4989.425243	0.091772	1.340552	7275.928223
4989.426149	0.091575	1.340552	7358.895020
4989.427042	0.091571	1.340552	7440.667969
4990.473675	1.032773	1.311283	451.322021
4990.474619	1.463295	1.311283	1832.672119
4990.475539	1.448232	1.311283	3165.045898
4990.476460	1.411754	1.311283	4465.271484
4990.477359	1.376982	1.311283	5703.178711
4990.478321	0.935819	1.311283	6603.436523
4990.479209	0.109380	1.311283	6700.565918
4990.480107	0.091534	1.311283	6782.763672
4990.480997	0.091707	1.311283	6864.382324
4990.481945	0.091721	1.311283	6951.333984
4990.482851	0.091630	1.311283	7034.350586
4990.483745	0.091567	1.311283	7116.211914
4990.484672	0.091714	1.311283	7201.230469
4990.485576	0.091677	1.311283	7284.106934
4990.486471	0.091611	1.311283	7366.099121
4990.487356	0.091553	1.311283	7447.123047
4991.507959	1.056409	1.344899	510.245361
4991.508874	1.465005	1.344899	1850.724854
4991.509778	1.447917	1.344899	3159.642090
4991.510673	1.412428	1.344899	4423.765137
4991.511612	1.375983	1.344899	5715.812988
4991.512541	0.946659	1.344899	6595.259277
4991.513453	0.108636	1.344899	6694.335937
4991.514341	0.091520	1.344899	6775.605469
4991.515292	0.091608	1.344899	6862.724121
4991.516201	0.091538	1.344899	6945.932129
4991.517096	0.091630	1.344899	7027.940430
4991.518024	0.091633	1.344899	7112.976074
4991.518924	0.091637	1.344899	7195.449219
4991.519825	0.091644	1.344899	7278.020508
4991.520715	0.091597	1.344899	7359.541504
4991.521641	0.091696	1.344899	7444.451660
4992.569311	1.050524	1.299310	479.038788
4992.570204	1.463837	1.299310	1786.244995
4992.571141	1.448752	1.299310	3143.726074
4992.572060	1.412494	1.299310	4441.807617
4992.572971	1.377140	1.299310	5696.381836
4992.573880	1.000569	1.299310	6605.898926
4992.574825	0.109442	1.299310	6709.321777
4992.575727	0.091454	1.299310	6791.812988
4992.576630	0.091611	1.299310	6874.538086
4992.577519	0.091549	1.299310	6955.925293
4992.578458	0.091674	1.299310	7042.006836
4992.579368	0.091542	1.299310	7125.310059
4992.580258	0.091556	1.299310	7206.795410
4992.581191	0.091630	1.299310	7292.285645
4992.582098	0.091604	1.299310	7375.370605
4992.583001	0.091556	1.299310	7458.045898
4993.602020	1.060807	1.359691	478.423889
4993.602922	1.463844	1.359691	1798.811279
4993.603818	1.449540	1.359691	3097.598877
4993.604771	1.412651	1.359691	4443.855469
4993.605681	1.376917	1.359691	5696.849609
4993.606593	0.999496	1.359691	6608.389648
4993.607497	0.116748	1.359691	6713.929687
4993.608442	0.091597	1.359691	6800.488770
4993.609348	0.091586	1.359691	6883.465332
4993.610243	0.091553	1.359691	6965.405273
4993.611168	0.091688	1.359691	7050.216797
4993.612075	0.091582	1.359691	7133.281738
4993.612971	0.091571	1.359691	7215.329590
4993.613857	0.091593	1.359691	7296.480957
4993.614799	0.091545	1.359691	7382.716797
4993.615694	0.091644	1.359691	7464.738281
4994.664464	1.091429	1.295294	552.263306
4994.665377	1.465609	1.295294	1890.364380
4994.666282	1.447116	1.295294	3200.003906
4994.667174	1.411586	1.295294	4459.138184
4994.668124	1.374987	1.295294	5765.375488
4994.669052	0.918871	1.295294	6618.087891
4994.669946	0.107292	1.295294	6714.007324
4994.670868	0.091663	1.295294	6798.520020
4994.671776	0.091707	1.295294	6881.789551
4994.672680	0.091564	1.295294	6964.562988
4994.673579	0.091688	1.295294	7046.990723
4994.674518	0.091666	1.295294	7133.065430
4994.675418	0.091615	1.295294	7215.519043
4994.676319	0.091641	1.295294	7298.087402
4994.677203	0.091593	1.295294	7379.055664
4994.678147	0.091674	1.295294	7465.595703
4995.696097	1.052512	1.326300	487.313141
4995.696997	1.464207	1.326300	1805.098999
4995.697941	1.448529	1.326300	3172.510498
4995.698849	1.412267	1.326300	4454.848633
4995.699750	1.377147	1.326300	5695.658203
4995.700676	0.958920	1.326300	6583.617676
4995.701617	0.109863	1.326300	6686.999023
4995.702517	0.091575	1.326300	6769.416016
4995.703416	0.091644	1.326300	6851.804199
4995.704340	0.091630	1.326300	6936.470215
4995.705240	0.091666	1.326300	7018.969727
4995.706147	0.091641	1.326300	7102.087891
4995.707036	0.091531	1.326300	7183.458984
4995.707975	0.091696	1.326300	7269.561035
4995.708877	0.091633	1.326300	7352.214355
4995.709767	0.091600	1.326300	7433.738770
4996.760008	1.032235	1.292910	450.054474
4996.760960	1.464353	1.292910	1844.118530
4996.761879	1.447822	1.292910	3174.667236
4996.762790	1.412168	1.292910	4461.152344
4996.763686	1.376613	1.292910	5694.597168
4996.764660	0.928363	1.292910	6598.822754
4996.765563	0.107966	1.292910	6696.316406
4996.766462	0.091593	1.292910	6778.658691
4996.767404	0.091619	1.292910	6864.963379
4996.768300	0.091692	1.292910	6947.119141
4996.769195	0.091545	1.292910	7029.052246
4996.770112	0.091578	1.292910	7113.029785
4996.771009	0.091663	1.292910	7195.250977
4996.771938	0.091710	1.292910	7280.449707
4996.772844	0.091571	1.292910	7363.413086
4996.773760	0.091670	1.292910	7447.382812
4997.790735	1.074324	1.332798	542.533508
4997.791643	1.465631	1.332798	1873.326660
4997.792546	1.447203	1.332798	3180.151367
4997.793449	1.411630	1.332798	4454.853027
4997.794394	1.375031	1.332798	5754.256836
4997.795326	0.916300	1.332798	6608.248535
4997.796222	0.106487	1.332798	6703.660645
4997.797139	0.091611	1.332798	6787.668457
4997.798066	0.091758	1.332798	6872.728027
4997.798972	0.091648	1.332798	6955.761230
4997.799868	0.091600	1.332798	7037.834961
4997.800807	0.091780	1.332798	7124.016113
4997.801711	0.091648	1.332798	7206.865723
4997.802606	0.091611	1.332798	7288.857910
4997.803496	0.091534	1.332798	7370.323730
4997.804433	0.091743	1.332798	7456.287109
4998.855136	1.053138	1.307693	476.018555
4998.856048	1.464360	1.307693	1811.515259
4998.856950	1.449027	1.307693	3118.537598
4998.857892	1.412314	1.307693	4448.937500
4998.858813	1.376397	1.307693	5716.598633
4998.859728	0.975736	1.307693	6609.396973
4998.860615	0.114532	1.307693	6710.987305
4998.861577	0.091582	1.307693	6799.089355
4998.862479	0.091655	1.307693	6881.762207
4998.863376	0.091619	1.307693	6963.944336
4998.864324	0.091611	1.307693	7050.791992
4998.865230	0.091666	1.307693	7133.841797
4998.866122	0.091644	1.307693	7215.588379
4998.867030	0.091644	1.307693	7298.801270
4998.867960	0.091692	1.307693	7384.074707
4998.868870	0.091578	1.307693	7467.411133
4999.885278	1.057013	1.329366	480.940887
4999.886179	1.464148	1.329366	1800.138184
4999.887127	1.448298	1.329366	3173.125000
4999.888054	1.411388	1.329366	4481.481445
4999.888963	1.375829	1.329366	5732.109863
4999.889869	0.975121	1.329366	6615.569336
4999.890834	0.105846	1.329366	6717.710449
4999.891735	0.091531	1.329366	6800.179687
4999.892637	0.091648	1.329366	6882.846191
4999.893525	0.091578	1.329366	6964.167969
4999.894453	0.091699	1.329366	7049.264648
4999.895370	0.091501	1.329366	7133.171387
4999.896267	0.091589	1.329366	7215.327148
4999.897193	0.091589	1.329366	7300.138672
4999.898104	0.091578	1.329366	7383.566406
4999.899012	0.091564	1.329366	7466.706055
5000.951257	1.047737	1.291133	465.195190
5000.952163	1.463657	1.291133	1791.268555
5000.953058	1.449789	1.291133	3088.829590
5000.953998	1.412728	1.291133	4416.793945
5000.954920	1.377081	1.291133	5686.462891
5000.955838	0.997738	1.291133	6602.386230
5000.956728	0.117012	1.291133	6706.526855
5000.957695	0.091534	1.291133	6795.040527
5000.958604	0.091487	1.291133	6878.202148
5000.959505	0.091545	1.291133	6960.684570
5000.960429	0.091611	1.291133	7045.333496
5000.961324	0.091575	1.291133	7127.292969
5000.962224	0.091490	1.291133	7209.634277
5000.963111	0.091501	1.291133	7290.795898
5000.964040	0.091593	1.291133	7375.885742
5000.964941	0.091560	1.291133	7458.381348
5001.981404	1.053479	1.319843	470.905151
5001.982312	1.464133	1.319843	1800.338135
5001.983212	1.448566	1.319843	3104.047119
5001.984182	1.411384	1.319843	4473.089844
5001.985099	1.375825	1.319843	5734.721680
5001.986008	0.963439	1.319843	6610.487305
5001.986943	0.111742	1.319843	6714.965820
5001.987842	0.091589	1.319843	6797.304687
5001.988737	0.091542	1.319843	6879.234375
5001.989625	0.091553	1.319843	6960.533203
5001.990569	0.091663	1.319843	7047.062500
5001.991462	0.091615	1.319843	7128.874512
5001.992366	0.091553	1.319843	7211.638184
5001.993260	0.091597	1.319843	7293.525391
5001.994200	0.091597	1.319843	7379.626465
5001.995107	0.091553	1.319843	7462.665039
5003.044834	1.055768	1.280684	481.430145
5003.045742	1.464225	1.280684	1810.946289
5003.046640	1.448965	1.280684	3112.116699
5003.047611	1.411340	1.280684	4482.528320
5003.048527	1.375525	1.280684	5742.509277
5003.049445	0.950354	1.280684	6614.934082
5003.050349	0.110914	1.280684	6715.200684
5003.051280	0.091545	1.280684	6800.429687
5003.052179	0.091523	1.280684	6882.709473
5003.053065	0.091586	1.280684	6963.854492
5003.054003	0.091611	1.280684	7049.786133
5003.054916	0.091600	1.280684	7133.417480
5003.055819	0.091575	1.280684	7216.109375
5003.056747	0.091659	1.280684	7301.168945
5003.057649	0.091633	1.280684	7383.822266
5003.058547	0.091593	1.280684	7466.072754
5004.076492	1.037069	1.303202	455.273315
5004.077451	1.462936	1.303202	1858.228760
5004.078392	1.446859	1.303202	3219.723145
5004.079288	1.411267	1.303202	4484.218262
5004.080185	1.376235	1.303202	5718.701172
5004.081137	0.928766	1.303202	6602.886230
5004.082050	0.106670	1.303202	6700.275879
5004.082944	0.091531	1.303202	6782.104492
5004.083881	0.091604	1.303202	6867.937500
5004.084790	0.091608	1.303202	6951.208984
5004.085686	0.091527	1.303202	7033.217285
5004.086575	0.091578	1.303202	7114.630371
5004.087511	0.091666	1.303202	7200.430176
5004.088417	0.091560	1.303202	7283.383789
5004.089314	0.091633	1.303202	7365.579102
5004.090207	0.091648	1.303202	7447.420898
5005.139917	1.037018	1.294307	457.324860
5005.140884	1.463555	1.294307	1872.582153
5005.141802	1.446859	1.294307	3200.798828
5005.142726	1.410403	1.294307	4504.010742
5005.143634	1.375042	1.294307	5752.548340
5005.144597	0.884095	1.294307	6603.932129
5005.145499	0.103660	1.294307	6697.433105
5005.146387	0.091586	1.294307	6778.761230
5005.147310	0.091644	1.294307	6863.349121
5005.148234	0.091593	1.294307	6947.980957
5005.149134	0.091615	1.294307	7030.434570
5005.150022	0.091578	1.294307	7111.756348
5005.150963	0.091608	1.294307	7197.958984
5005.151863	0.091527	1.294307	7280.333496
5005.152755	0.091611	1.294307	7362.050781
5005.153686	0.091666	1.294307	7447.392090
5006.171604	1.038757	1.326228	462.247009
5006.172501	1.463489	1.326228	1774.996582
5006.173464	1.447910	1.326228	3169.333984
5006.174376	1.411703	1.326228	4456.807129
5006.175288	1.376448	1.326228	5712.127441
5006.176186	0.965991	1.326228	6579.587402
5006.177131	0.108933	1.326228	6682.529297
5006.178037	0.091490	1.326228	6765.419922
5006.178932	0.091542	1.326228	6847.349609
5006.179857	0.091630	1.326228	6932.106934
5006.180763	0.091538	1.326228	7015.040527
5006.181668	0.091538	1.326228	7097.882324
5006.182558	0.091527	1.326228	7179.341309
5006.183510	0.091571	1.326228	7266.517090
5006.184403	0.091512	1.326228	7348.237793
5006.185297	0.091589	1.326228	7430.118652
5007.233505	1.063147	1.320008	480.542419
5007.234429	1.464441	1.320008	1833.685791
5007.235332	1.448386	1.320008	3141.578613
5007.236258	1.412611	1.320008	4449.656250
5007.237190	1.376206	1.320008	5732.280273
5007.238113	0.948549	1.320008	6607.790527
5007.239002	0.111372	1.320008	6706.800293
5007.239946	0.091512	1.320008	6793.187988
5007.240845	0.091721	1.320008	6875.645508
5007.241743	0.091619	1.320008	6957.918945
5007.242632	0.091553	1.320008	7039.309570
5007.243575	0.091721	1.320008	7125.802734
5007.244478	0.091604	1.320008	7208.520996
5007.245378	0.091600	1.320008	7290.961426
5007.246303	0.091633	1.320008	7375.722168
5007.247196	0.091663	1.320008	7457.576660
5008.267275	1.070614	1.304209	539.589417
5008.268181	1.465624	1.304209	1867.444580
5008.269078	1.447617	1.304209	3165.957031
5008.270015	1.411230	1.304209	4488.279785
5008.270936	1.375166	1.304209	5754.807617
5008.271853	0.931293	1.304209	6608.803223
5008.272745	0.108622	1.304209	6705.693848
5008.273696	0.091648	1.304209	6792.851074
5008.274597	0.091553	1.304209	6875.339844
5008.275492	0.091608	1.304209	6957.328613
5008.276377	0.091630	1.304209	7038.420898
5008.277316	0.091659	1.304209	7124.488770
5008.278210	0.091652	1.304209	7206.425293
5008.279101	0.091615	1.304209	7288.054199
5008.280039	0.091589	1.304209	7373.964844
5008.280953	0.091615	1.304209	7457.701172
5009.328586	1.031591	1.324512	449.773499
5009.329523	1.463229	1.324512	1820.818848
5009.330440	1.448518	1.324512	3149.109863
5009.331347	1.412794	1.324512	4430.514160
5009.332241	1.377755	1.324512	5662.227051
5009.333229	0.939287	1.324512	6590.242676
5009.334128	0.108875	1.324512	6688.121094
5009.335031	0.091509	1.324512	6770.753418
5009.335925	0.091586	1.324512	6852.630859
5009.336853	0.091718	1.324512	6937.744629
5009.337750	0.091575	1.324512	7019.887207
5009.338649	0.091501	1.324512	7102.146973
5009.339579	0.091630	1.324512	7187.362305
5009.340490	0.091637	1.324512	7270.843750
5009.341393	0.091567	1.324512	7353.529297
5009.342279	0.091615	1.324512	7434.700195
5010.361804	1.038073	1.304797	458.828094
5010.362702	1.463079	1.304797	1772.672729
5010.363692	1.446804	1.304797	3205.008789
5010.364607	1.410912	1.304797	4495.993164
5010.365503	1.376038	1.304797	5728.922852
5010.366457	0.915981	1.304797	6602.769043
5010.367358	0.106849	1.304797	6699.040527
5010.368261	0.091469	1.304797	6781.636719
5010.369149	0.091582	1.304797	6862.961426
5010.370084	0.091630	1.304797	6948.635254
5010.370989	0.091531	1.304797	7031.470703
5010.371884	0.091589	1.304797	7113.443359
5010.372820	0.091652	1.304797	7199.229492
5010.373726	0.091652	1.304797	7282.265625
5010.374627	0.091549	1.304797	7364.751465
5010.375513	0.091542	1.304797	7445.857422
5011.422736	1.076825	1.297961	545.950256
5011.423654	1.465891	1.297961	1891.638184
5011.424554	1.446918	1.297961	3193.864014
5011.425451	1.411542	1.297961	4460.017090
5011.426385	1.375569	1.297961	5744.798340
5011.427319	0.921467	1.297961	6605.448730
5011.428217	0.106666	1.297961	6701.234863
5011.429134	0.091490	1.297961	6785.131836
5011.430052	0.091637	1.297961	6869.254395
5011.430957	0.091556	1.297961	6952.112793
5011.431845	0.091567	1.297961	7033.424805
5011.432791	0.091619	1.297961	7120.096191
5011.433698	0.091571	1.297961	7203.151367
5011.434592	0.091633	1.297961	7285.071777
5011.435484	0.091476	1.297961	7366.668457
5011.436423	0.091655	1.297961	7452.732910
5012.457433	1.045843	1.277360	471.675415
5012.458330	1.463646	1.277360	1784.566162
5012.459282	1.448207	1.277360	3163.259033
5012.460194	1.412241	1.277360	4451.223145
5012.461095	1.376968	1.277360	5691.871094
5012.461986	1.015591	1.277360	6596.762695
5012.462941	0.111797	1.277360	6703.528809
5012.463857	0.091564	1.277360	6787.401367
5012.464754	0.091611	1.277360	6869.576660
5012.465667	0.091600	1.277360	6953.208008
5012.466587	0.091648	1.277360	7037.523926
5012.467487	0.091611	1.277360	7119.974121
5012.468385	0.091498	1.277360	7202.139160
5012.469329	0.091608	1.277360	7288.616699
5012.470232	0.091578	1.277360	7371.312012
5012.471130	0.091534	1.277360	7453.509766
5013.517788	1.055365	1.287725	483.357147
5013.518725	1.465023	1.287725	1856.083862
5013.519619	1.447910	1.287725	3150.515625
5013.520576	1.410989	1.287725	4500.832031
5013.521479	1.375741	1.287725	5743.125977
5013.522381	0.967013	1.287725	6615.371582
5013.523320	0.112123	1.287725	6720.654785
5013.524227	0.091553	1.287725	6803.693359
5013.525147	0.091611	1.287725	6887.975586
5013.526049	0.091670	1.287725	6970.661621
5013.526998	0.091674	1.287725	7057.659668
5013.527905	0.091648	1.287725	7140.784180
5013.528827	0.091648	1.287725	7225.283691
5013.529715	0.091666	1.287725	7306.683105
5013.530663	0.091652	1.287725	7393.568848
5013.531556	0.091589	1.287725	7475.357910
5014.552589	1.113801	1.289204	561.355835
5014.553509	1.466078	1.289204	1910.147583
5014.554416	1.446881	1.289204	3222.468750
5014.555310	1.411000	1.289204	4483.902344
5014.556271	1.374540	1.289204	5804.834961
5014.557190	0.900934	1.289204	6632.792969
5014.558080	0.106205	1.289204	6727.315430
5014.559026	0.091560	1.289204	6813.931152
5014.559926	0.091648	1.289204	6896.414062
5014.560825	0.091512	1.289204	6978.683594
5014.561715	0.091611	1.289204	7060.217773
5014.562645	0.091608	1.289204	7145.413086
5014.563547	0.091670	1.289204	7228.099121
5014.564448	0.091630	1.289204	7310.657227
5014.565336	0.091534	1.289204	7391.939941
5014.566286	0.091670	1.289204	7479.026367
5015.612427	1.096333	1.297985	551.455505
5015.613332	1.465627	1.297985	1877.848389
5015.614242	1.447258	1.297985	3194.853516
5015.615137	1.411443	1.297985	4458.094727
5015.616096	1.374807	1.297985	5776.534668
5015.617021	0.917772	1.297985	6625.474121
5015.617922	0.106124	1.297985	6721.092285
5015.618848	0.091538	1.297985	6805.856445
5015.619749	0.091637	1.297985	6888.421387
5015.620645	0.091516	1.297985	6970.419922
5015.621536	0.091582	1.297985	7052.019531
5015.622477	0.091615	1.297985	7138.229004
5015.623372	0.091520	1.297985	7220.139160
5015.624276	0.091538	1.297985	7302.889648
5015.625167	0.091626	1.297985	7384.528320
5015.626109	0.091652	1.297985	7470.864258
5016.647127	1.048660	1.290037	469.799530
5016.648020	1.463419	1.290037	1776.632935
5016.648969	1.448657	1.290037	3151.408691
5016.649886	1.412432	1.290037	4446.608398
5016.650788	1.377144	1.290037	5688.791992
5016.651687	0.998298	1.290037	6586.262207
5016.652622	0.112592	1.290037	6691.535156
5016.653529	0.091494	1.290037	6774.520508
5016.654428	0.091542	1.290037	6856.816406
5016.655357	0.091611	1.290037	6941.923340
5016.656261	0.091663	1.290037	7024.786133
5016.657165	0.091538	1.290037	7107.536621
5016.658056	0.091611	1.290037	7189.162109
5016.658997	0.091758	1.290037	7275.506348
5016.659899	0.091553	1.290037	7358.086914
5016.660790	0.091644	1.290037	7439.742187
5017.707478	1.052018	1.307464	476.564056
5017.708371	1.463126	1.307464	1783.135742
5017.709346	1.447350	1.307464	3194.301758
5017.710254	1.411362	1.307464	4475.818848
5017.711159	1.376136	1.307464	5721.222168
5017.712114	0.926990	1.307464	6606.497559
5017.713016	0.107494	1.307464	6703.457031
5017.713915	0.091527	1.307464	6785.739746
5017.714806	0.091630	1.307464	6867.381836
5017.715760	0.091674	1.307464	6954.838379
5017.716660	0.091589	1.307464	7037.268555
5017.717559	0.091615	1.307464	7119.630371
5017.718468	0.091556	1.307464	7202.854980
5017.719388	0.091703	1.307464	7287.221680
5017.720289	0.091608	1.307464	7369.760254
5017.721189	0.091619	1.307464	7452.216797
5018.742256	1.078484	1.281787	510.122833
5018.743176	1.465228	1.281787	1858.132690
5018.744090	1.447863	1.281787	3181.479004
5018.744998	1.411780	1.281787	4463.375000
5018.745942	1.375474	1.281787	5761.822266
5018.746866	0.929286	1.281787	6620.482422
5018.747760	0.108790	1.281787	6717.740723
5018.748690	0.091670	1.281787	6802.993652
5018.749605	0.091560	1.281787	6886.770996
5018.750510	0.091593	1.281787	6969.662598
5018.751397	0.091626	1.281787	7050.935059
5018.752347	0.091648	1.281787	7138.000488
5018.753258	0.091538	1.281787	7221.391602
5018.754158	0.091600	1.281787	7303.832031
5018.755082	0.091615	1.281787	7388.484375
5018.755989	0.091622	1.281787	7471.585937
5019.802589	1.055801	1.279822	476.166168
5019.803511	1.464313	1.279822	1826.262451
5019.804410	1.448800	1.279822	3128.733643
5019.805365	1.412073	1.279822	4477.263184
5019.806266	1.376374	1.279822	5717.376465
5019.807177	0.977860	1.279822	6608.207031
5019.808066	0.114829	1.279822	6710.290039
5019.809026	0.091578	1.279822	6798.205078
5019.809934	0.091542	1.279822	6881.325195
5019.810832	0.091630	1.279822	6963.608398
5019.811759	0.091655	1.279822	7048.572754
5019.812663	0.091703	1.279822	7131.472168
5019.813560	0.091622	1.279822	7213.657227
5019.814477	0.091582	1.279822	7297.638184
5019.815366	0.091659	1.279822	7379.123047
5019.816305	0.091505	1.279822	7465.046387
5020.836303	1.041226	1.288265	459.180511
5020.837209	1.463892	1.288265	1785.466309
5020.838116	1.449075	1.288265	3099.777100
5020.839076	1.412219	1.288265	4455.507812
5020.839993	1.376510	1.288265	5717.767578
5020.840900	0.980969	1.288265	6607.506836
5020.841853	0.111757	1.288265	6714.010742
5020.842751	0.091597	1.288265	6796.264648
5020.843649	0.091593	1.288265	6878.515137
5020.844539	0.091608	1.288265	6960.045898
5020.845475	0.091630	1.288265	7045.811035
5020.846383	0.091549	1.288265	7128.937500
5020.847285	0.091663	1.288265	7211.617187
5020.848201	0.091611	1.288265	7295.533203
5020.849110	0.091641	1.288265	7378.834473
5020.850019	0.091523	1.288265	7462.029297
5021.897694	1.053585	1.287987	479.381317
5021.898593	1.463848	1.287987	1795.380493
5021.899541	1.448405	1.287987	3168.468018
5021.900458	1.411824	1.287987	4463.110352
5021.901353	1.376858	1.287987	5695.398437
5021.902284	0.953522	1.287987	6583.126953
5021.903221	0.108325	1.287987	6684.627441
5021.904121	0.091443	1.287987	6766.926270
5021.905011	0.091597	1.287987	6848.447266
5021.905934	0.091611	1.287987	6933.004395
5021.906841	0.091567	1.287987	7016.056152
5021.907767	0.091542	1.287987	7100.823730
5021.908655	0.091600	1.287987	7182.165039
5021.909594	0.091630	1.287987	7268.205078
5021.910489	0.091663	1.287987	7350.243164
5021.911380	0.091641	1.287987	7431.895020
5022.931938	1.053699	1.288245	473.110687
5022.932867	1.464382	1.288245	1833.521851
5022.933767	1.448650	1.288245	3137.306641
5022.934702	1.412395	1.288245	4457.895996
5022.935611	1.376444	1.288245	5709.083984
5022.936540	0.963076	1.288245	6603.781738
5022.937439	0.111932	1.288245	6704.409180
5022.938382	0.091523	1.288245	6790.715820
5022.939283	0.091479	1.288245	6873.138672
5022.940188	0.091571	1.288245	6956.010254
5022.941073	0.091567	1.288245	7037.047363
5022.942019	0.091670	1.288245	7123.767090
5022.942923	0.091578	1.288245	7206.553711
5022.943819	0.091560	1.288245	7288.591309
5022.944760	0.091556	1.288245	7374.746094
5022.945660	0.091604	1.288245	7457.189453
5023.992794	1.049033	1.281393	469.966858
5023.993697	1.463972	1.281393	1791.933594
5023.994591	1.449694	1.281393	3087.959473
5023.995564	1.412098	1.281393	4461.931152
5023.996478	1.376444	1.281393	5720.000977
5023.997384	0.982537	1.281393	6610.179199
5023.998302	0.114862	1.281393	6715.622559
5023.999225	0.091531	1.281393	6800.105469
5024.000122	0.091611	1.281393	6882.280762
5024.001015	0.091600	1.281393	6964.080078
5024.001940	0.091604	1.281393	7048.813965
5024.002851	0.091696	1.281393	7132.348633
5024.003752	0.091586	1.281393	7214.867187
5024.004642	0.091564	1.281393	7296.358887
5024.005590	0.091575	1.281393	7383.171875
5024.006488	0.091593	1.281393	7465.422363
5025.026521	1.041427	1.272184	466.559296
5025.027413	1.463247	1.272184	1771.775757
5025.028367	1.448156	1.272184	3153.316162
5025.029284	1.412219	1.272184	4448.321289
5025.030190	1.376752	1.272184	5695.658203
5025.031131	0.965303	1.272184	6604.008301
5025.032054	0.109534	1.272184	6705.107910
5025.032958	0.091443	1.272184	6787.772461
5025.033853	0.091527	1.272184	6869.689453
5025.034796	0.091556	1.272184	6956.027344
5025.035700	0.091630	1.272184	7038.860352
5025.036594	0.091597	1.272184	7120.747559
5025.037478	0.091633	1.272184	7201.751465
5025.038409	0.091725	1.272184	7287.147461
5025.039321	0.091666	1.272184	7370.747070
5025.040217	0.091578	1.272184	7452.801270
5026.088444	1.088672	1.269195	520.385193
5026.089366	1.464994	1.269195	1871.109619
5026.090264	1.447863	1.269195	3171.290039
5026.091204	1.411696	1.269195	4498.284180
5026.092112	1.375675	1.269195	5747.396973
5026.093027	0.951757	1.269195	6618.254395
5026.093916	0.111833	1.269195	6717.674316
5026.094860	0.091564	1.269195	6804.110352
5026.095764	0.091729	1.269195	6887.032715
5026.096662	0.091710	1.269195	6969.388672
5026.097548	0.091663	1.269195	7050.601562
5026.098490	0.091732	1.269195	7137.013184
5026.099402	0.091611	1.269195	7220.562500
5026.100296	0.091648	1.269195	7302.495605
5026.101234	0.091633	1.269195	7388.447754
5026.102134	0.091589	1.269195	7470.877930
5027.120587	1.040867	1.290331	462.144836
5027.121566	1.465529	1.290331	1896.897461
5027.122476	1.446522	1.290331	3213.232666
5027.123380	1.410912	1.290331	4488.696777
5027.124313	1.375408	1.290331	5771.952148
5027.125243	0.912616	1.290331	6620.685059
5027.126137	0.106454	1.290331	6715.854980
5027.127027	0.091538	1.290331	6797.323730
5027.127976	0.091659	1.290331	6884.308105
5027.128881	0.091648	1.290331	6967.249512
5027.129780	0.091652	1.290331	7049.644531
5027.130666	0.091641	1.290331	7130.837891
5027.131599	0.091707	1.290331	7216.399902
5027.132503	0.091626	1.290331	7299.229980
5027.133398	0.091633	1.290331	7381.241699
5027.134325	0.091633	1.290331	7466.185547
5028.183519	1.055435	1.267298	474.945557
5028.184417	1.463851	1.267298	1789.484009
5028.185382	1.447540	1.267298	3186.360352
5028.186290	1.411776	1.267298	4468.252930
5028.187184	1.376810	1.267298	5699.121094
5028.188144	0.949486	1.267298	6610.627930
5028.189045	0.109761	1.267298	6709.522461
5028.189950	0.091476	1.267298	6792.308105
5028.190841	0.091560	1.267298	6873.888184
5028.191779	0.091739	1.267298	6959.939941
5028.192690	0.091578	1.267298	7043.367676
5028.193590	0.091674	1.267298	7125.874023
5028.194477	0.091655	1.267298	7207.172363
5028.195423	0.091714	1.267298	7293.933594
5028.196321	0.091494	1.267298	7376.095215
5028.197215	0.091615	1.267298	7457.999023
5029.215188	1.048693	1.265557	467.716888
5029.216089	1.463635	1.265557	1786.452393
5029.216991	1.449591	1.265557	3093.983398
5029.217961	1.411754	1.265557	4463.384766
5029.218871	1.376418	1.265557	5715.925781
5029.219779	0.985280	1.265557	6610.559570
5029.220706	0.115206	1.265557	6717.355957
5029.221620	0.091534	1.265557	6801.018555
5029.222528	0.091630	1.265557	6884.218262
5029.223421	0.091549	1.265557	6965.971680
5029.224350	0.091633	1.265557	7051.099121
5029.225259	0.091608	1.265557	7134.370605
5029.226159	0.091637	1.265557	7216.843750
5029.227053	0.091652	1.265557	7298.780273
5029.228001	0.091681	1.265557	7385.693848
5029.228905	0.091622	1.265557	7468.520508
5030.278617	1.057848	1.257166	478.147217
5030.279529	1.464499	1.257166	1813.770752
5030.280425	1.448375	1.257166	3111.514893
5030.281394	1.411556	1.257166	4479.312988
5030.282312	1.375906	1.257166	5742.394531
5030.283220	0.961681	1.257166	6615.600586
5030.284167	0.110892	1.257166	6720.615723
5030.285068	0.091564	1.257166	6803.114746
5030.285969	0.091619	1.257166	6885.663086
5030.286884	0.091589	1.257166	6969.467285
5030.287780	0.091622	1.257166	7051.561035
5030.288711	0.091630	1.257166	7136.868164
5030.289616	0.091586	1.257166	7219.753418
5030.290506	0.091619	1.257166	7301.293945
5030.291413	0.091600	1.257166	7384.375488
5030.292344	0.091637	1.257166	7469.689453
5031.309773	1.036113	1.277171	454.853729
5031.310719	1.463661	1.277171	1839.476929
5031.311633	1.447954	1.277171	3162.906982
5031.312540	1.412552	1.277171	4444.091797
5031.313435	1.377239	1.277171	5676.720703
5031.314390	0.963391	1.277171	6596.759277
5031.315298	0.111372	1.277171	6697.885254
5031.316195	0.091578	1.277171	6780.031250
5031.317108	0.091652	1.277171	6863.708984
5031.318036	0.091674	1.277171	6948.782227
5031.318942	0.091604	1.277171	7031.775391
5031.319843	0.091677	1.277171	7114.376465
5031.320778	0.091600	1.277171	7200.022949
5031.321675	0.091688	1.277171	7282.267090
5031.322577	0.091641	1.277171	7364.926758
5031.323462	0.091611	1.277171	7446.002930
5032.373756	1.055826	1.254278	513.131653
5032.374675	1.465898	1.254278	1860.292236
5032.375586	1.447357	1.254278	3178.834473
5032.376487	1.411849	1.254278	4450.910645
5032.377432	1.375177	1.254278	5750.453125
5032.378355	0.922573	1.254278	6601.988281
5032.379255	0.107512	1.254278	6698.749023
5032.380140	0.091593	1.254278	6779.808594
5032.381077	0.091608	1.254278	6865.645020
5032.381972	0.091487	1.254278	6947.525879
5032.382866	0.091652	1.254278	7029.462402
5032.383791	0.091597	1.254278	7114.189453
5032.384695	0.091604	1.254278	7196.999512
5032.385605	0.091556	1.254278	7280.315918
5032.386507	0.091611	1.254278	7362.949219
5032.387453	0.091633	1.254278	7449.634277
5033.404377	1.057064	1.283395	470.393555
5033.405300	1.464466	1.283395	1822.096069
5033.406203	1.448796	1.283395	3130.359375
5033.407134	1.412743	1.283395	4445.623047
5033.408049	1.376792	1.283395	5705.387695
5033.408963	0.990355	1.283395	6610.572266
5033.409855	0.116613	1.283395	6714.590820
5033.410793	0.091652	1.283395	6800.560059
5033.411685	0.091523	1.283395	6882.198730
5033.412586	0.091600	1.283395	6964.730469
5033.413471	0.091750	1.283395	7045.929687
5033.414406	0.091710	1.283395	7131.678711
5033.415319	0.091637	1.283395	7215.343262
5033.416216	0.091681	1.283395	7297.581055
5033.417153	0.091703	1.283395	7383.506836
5033.418062	0.091670	1.283395	7466.834961
5034.468326	1.060701	1.249815	485.800903
5034.469230	1.464254	1.249815	1809.486694
5034.470125	1.449261	1.249815	3106.575684
5034.471071	1.412889	1.249815	4443.168945
5034.471990	1.376261	1.249815	5707.952637
5034.472906	0.980413	1.249815	6606.010742
5034.473796	0.115195	1.249815	6708.534668
5034.474729	0.091578	1.249815	6793.977051
5034.475646	0.091553	1.249815	6877.930664
5034.476538	0.091630	1.249815	6959.664062
5034.477468	0.091589	1.249815	7044.842285
5034.478377	0.091619	1.249815	7128.123535
5034.479271	0.091655	1.249815	7210.063477
5034.480158	0.091644	1.249815	7291.352051
5034.481102	0.091622	1.249815	7377.843750
5034.482003	0.091600	1.249815	7460.375488
5035.499476	1.039706	1.286964	463.708832
5035.500374	1.463082	1.286964	1777.556763
5035.501326	1.447672	1.286964	3155.740723
5035.502243	1.411941	1.286964	4450.490723
5035.503138	1.377187	1.286964	5683.073242
5035.504097	0.955247	1.286964	6599.154785
5035.505017	0.108754	1.286964	6699.208008
5035.505917	0.091578	1.286964	6781.628418
5035.506848	0.091703	1.286964	6867.003906
5035.507750	0.091608	1.286964	6949.633789
5035.508654	0.091571	1.286964	7032.414062
5035.509543	0.091545	1.286964	7113.797852
5035.510500	0.091626	1.286964	7201.483887
5035.511390	0.091626	1.286964	7283.031250
5035.512291	0.091619	1.286964	7365.579590
5035.513181	0.091608	1.286964	7447.110352
5036.562890	1.038622	1.237013	458.032196
5036.563839	1.465433	1.237013	1848.728394
5036.564756	1.447621	1.237013	3176.196777
5036.565671	1.411707	1.237013	4467.908203
5036.566588	1.376030	1.237013	5729.728027
5036.567506	0.960436	1.237013	6611.408203
5036.568453	0.105278	1.237013	6711.106934
5036.569374	0.091571	1.237013	6795.443848
5036.570262	0.091681	1.237013	6876.856445
5036.571202	0.091681	1.237013	6963.036621
5036.572114	0.091582	1.237013	7046.559570
5036.573029	0.091718	1.237013	7130.480957
5036.573918	0.091619	1.237013	7211.930176
5036.574849	0.091571	1.237013	7297.182617
5036.575752	0.091648	1.237013	7379.940918
5036.576640	0.091641	1.237013	7461.317871
5037.595095	1.055478	1.273332	476.020782
5037.596005	1.464261	1.273332	1808.498657
5037.596955	1.447635	1.273332	3183.752441
5037.597866	1.411729	1.273332	4469.836914
5037.598772	1.376525	1.273332	5716.968262
5037.599678	0.959352	1.273332	6586.141113
5037.600637	0.106974	1.273332	6688.729004
5037.601547	0.091575	1.273332	6772.062012
5037.602438	0.091633	1.273332	6853.707520
5037.603381	0.091641	1.273332	6940.124512
5037.604281	0.091619	1.273332	7022.581055
5037.605178	0.091641	1.273332	7104.782715
5037.606069	0.091648	1.273332	7186.440918
5037.606999	0.091699	1.273332	7271.721191
5037.607903	0.091505	1.273332	7354.441895
5037.608808	0.091641	1.273332	7437.376465
5038.657011	1.079901	1.238088	507.553528
5038.657940	1.465005	1.238088	1868.543213
5038.658839	1.447859	1.238088	3170.168457
5038.659772	1.411487	1.238088	4487.085449
5038.660696	1.375137	1.238088	5757.711914
5038.661620	0.923837	1.238088	6611.336914
5038.662515	0.108102	1.238088	6708.087891
5038.663453	0.091586	1.238088	6793.995117
5038.664359	0.091681	1.238088	6877.058105
5038.665263	0.091633	1.238088	6959.894531
5038.666151	0.091586	1.238088	7041.222656
5038.667092	0.091681	1.238088	7127.494629
5038.667997	0.091703	1.238088	7210.485840
5038.668888	0.091575	1.238088	7292.079102
5038.669818	0.091615	1.238088	7377.281250
5038.670720	0.091677	1.238088	7459.974121
5039.690252	1.060569	1.253400	534.526672
5039.691164	1.465631	1.253400	1871.182373
5039.692062	1.447452	1.253400	3170.994629
5039.692960	1.412014	1.253400	4438.983398
5039.693910	1.375056	1.253400	5745.286621
5039.694836	0.924719	1.253400	6601.576660
5039.695735	0.107344	1.253400	6698.078613
5039.696628	0.091567	1.253400	6779.848145
5039.697583	0.091677	1.253400	6867.399902
5039.698488	0.091523	1.253400	6950.228516
5039.699376	0.091597	1.253400	7031.566406
5039.700326	0.091655	1.253400	7118.638672
5039.701224	0.091586	1.253400	7200.882812
5039.702114	0.091571	1.253400	7282.380859
5039.703040	0.091655	1.253400	7367.253418
5039.703952	0.091615	1.253400	7450.806152
5040.751069	1.053391	1.246548	477.186157
5040.751965	1.463943	1.246548	1788.879028
5040.752908	1.448544	1.246548	3154.855713
5040.753826	1.412395	1.246548	4451.434570
5040.754731	1.376473	1.246548	5697.143066
5040.755659	0.954983	1.246548	6583.367187
5040.756573	0.110068	1.246548	6683.969727
5040.757486	0.091483	1.246548	6767.493652
5040.758417	0.091520	1.246548	6852.698730
5040.759337	0.091622	1.246548	6936.991211
5040.760226	0.091531	1.246548	7018.362305
5040.761183	0.091586	1.246548	7106.009766
5040.762080	0.091476	1.246548	7188.063477
5040.762971	0.091626	1.246548	7269.702148
5040.763920	0.091644	1.246548	7356.672363
5040.764814	0.091527	1.246548	7438.497559
5041.785300	1.040218	1.287737	461.856995
5041.786273	1.463606	1.287737	1885.945557
5041.787181	1.447343	1.287737	3200.132568
5041.788085	1.411362	1.287737	4476.003906
5041.788979	1.376356	1.287737	5706.466309
5041.789943	0.927070	1.287737	6600.162109
5041.790847	0.106934	1.287737	6696.830078
5041.791754	0.091600	1.287737	6779.911621
5041.792642	0.091549	1.287737	6861.207031
5041.793590	0.091633	1.287737	6948.075195
5041.794492	0.091542	1.287737	7030.645996
5041.795385	0.091586	1.287737	7112.432129
5041.796317	0.091685	1.287737	7197.882324
5041.797218	0.091604	1.287737	7280.417480
5041.798113	0.091589	1.287737	7362.390137
5041.799003	0.091549	1.287737	7443.868652
5042.845644	1.038369	1.253593	457.920807
5042.846581	1.464873	1.253593	1830.506714
5042.847507	1.447734	1.253593	3171.108887
5042.848411	1.412241	1.253593	4447.774902
5042.849343	1.376334	1.253593	5730.518555
5042.850279	0.939697	1.253593	6610.075195
5042.851187	0.108043	1.253593	6708.178223
5042.852081	0.091498	1.253593	6789.977051
5042.853024	0.091619	1.253593	6876.373535
5042.853920	0.091677	1.253593	6958.516113
5042.854819	0.091575	1.253593	7040.841797
5042.855706	0.091538	1.253593	7122.036133
5042.856639	0.091512	1.253593	7207.417480
5042.857550	0.091578	1.253593	7290.845215
5042.858446	0.091586	1.253593	7372.905762
5042.859379	0.091633	1.253593	7458.399414
5043.880930	1.061942	1.253907	489.555298
5043.881828	1.464225	1.253907	1804.429199
5043.882774	1.448243	1.253907	3174.467285
5043.883690	1.412069	1.253907	4467.922852
5043.884597	1.376569	1.253907	5716.470703
5043.885498	0.987733	1.253907	6606.418457
5043.886458	0.107227	1.253907	6709.355957
5043.887359	0.091556	1.253907	6791.848145
5043.888261	0.091648	1.253907	6874.514648
5043.889154	0.091648	1.253907	6956.356445
5043.890079	0.091761	1.253907	7041.235840
5043.890988	0.091527	1.253907	7124.434082
5043.891890	0.091531	1.253907	7206.994629
5043.892779	0.091714	1.253907	7288.528320
5043.893712	0.091589	1.253907	7373.980957
5043.894626	0.091604	1.253907	7457.707031
5044.940242	1.045898	1.239603	466.470703
5044.941151	1.463925	1.239603	1797.178101
5044.942046	1.449543	1.239603	3094.519531
5044.943010	1.412135	1.239603	4455.817383
5044.943915	1.376576	1.239603	5701.618652
5044.944829	0.997178	1.239603	6613.039062
5044.945742	0.116455	1.239603	6719.362305
5044.946668	0.091641	1.239603	6804.221680
5044.947569	0.091556	1.239603	6886.713867
5044.948464	0.091633	1.239603	6968.725586
5044.949393	0.091648	1.239603	7053.866699
5044.950297	0.091652	1.239603	7136.719727
5044.951194	0.091641	1.239603	7218.921387
5044.952082	0.091534	1.239603	7300.204102
5044.953021	0.091674	1.239603	7386.285645
5044.953925	0.091688	1.239603	7469.171875
5045.976579	1.100262	1.229165	539.128601
5045.977505	1.465836	1.229165	1896.492920
5045.978413	1.446918	1.229165	3210.294189
5045.979370	1.409755	1.229165	4559.429199
5045.980287	1.373903	1.229165	5819.297852
5045.981200	0.894060	1.229165	6635.574707
5045.982088	0.106022	1.229165	6729.722168
5045.983042	0.091520	1.229165	6817.032227
5045.983941	0.091644	1.229165	6899.420410
5045.984840	0.091630	1.229165	6981.795410
5045.985774	0.091516	1.229165	7067.271484
5045.986677	0.091707	1.229165	7150.082520
5045.987574	0.091545	1.229165	7232.198730
5045.988463	0.091619	1.229165	7313.647949
5045.989402	0.091685	1.229165	7399.739746
5045.990305	0.091597	1.229165	7482.451660
5047.035338	1.040068	1.215679	456.589966
5047.036299	1.465400	1.215679	1864.839722
5047.037219	1.446962	1.215679	3196.044434
5047.038129	1.411458	1.215679	4480.470703
5047.039064	1.375616	1.215679	5766.671875
5047.039991	0.924873	1.215679	6624.029297
5047.040891	0.107633	1.215679	6720.898926
5047.041779	0.091505	1.215679	6802.155273
5047.042735	0.091699	1.215679	6889.819824
5047.043641	0.091670	1.215679	6972.872559
5047.044541	0.091597	1.215679	7055.309570
5047.045429	0.091567	1.215679	7136.621582
5047.046376	0.091523	1.215679	7223.294434
5047.047289	0.091593	1.215679	7306.918945
5047.048182	0.091575	1.215679	7388.695312
5047.049110	0.091685	1.215679	7473.778809
5048.070619	1.057859	1.250024	482.383667
5048.071520	1.464042	1.250024	1801.485229
5048.072459	1.448262	1.250024	3161.402832
5048.073378	1.411842	1.250024	4458.885742
5048.074290	1.376440	1.250024	5714.199219
5048.075190	0.983628	1.250024	6599.464355
5048.076147	0.108823	1.250024	6703.608398
5048.077063	0.091516	1.250024	6787.437012
5048.077958	0.091652	1.250024	6869.465332
5048.078866	0.091553	1.250024	6952.595215
5048.079763	0.091681	1.250024	7034.833008
5048.080705	0.091622	1.250024	7121.141113
5048.081623	0.091575	1.250024	7205.206543
5048.082512	0.091670	1.250024	7286.701172
5048.083472	0.091666	1.250024	7374.700684
5048.084378	0.091663	1.250024	7457.747070
5049.129422	1.053153	1.231063	469.706268
5049.130384	1.465375	1.231063	1879.396851
5049.131297	1.447042	1.231063	3200.546387
5049.132194	1.411934	1.231063	4467.050781
5049.133134	1.375979	1.231063	5760.470703
5049.134050	0.942012	1.231063	6623.353516
5049.134944	0.109369	1.231063	6721.129395
5049.135877	0.091611	1.231063	6806.602539
5049.136790	0.091685	1.231063	6890.310547
5049.137697	0.091633	1.231063	6973.421875
5049.138586	0.091630	1.231063	7054.880859
5049.139534	0.091721	1.231063	7141.832520
5049.140438	0.091681	1.231063	7224.711914
5049.141341	0.091718	1.231063	7307.532715
5049.142233	0.091674	1.231063	7389.305664
5049.143173	0.091582	1.231063	7475.392578
5050.165709	1.036567	1.238495	458.162750
5050.166672	1.465704	1.238495	1869.635986
5050.167592	1.446365	1.238495	3200.291504
5050.168523	1.410362	1.238495	4513.338867
5050.169429	1.374979	1.238495	5759.070312
5050.170381	0.889094	1.238495	6605.488281
5050.171289	0.103879	1.238495	6699.810547
5050.172179	0.091512	1.238495	6781.256836
5050.173127	0.091641	1.238495	6868.132324
5050.174043	0.091619	1.238495	6952.055176
5050.174962	0.091611	1.238495	7036.246094
5050.175846	0.091575	1.238495	7117.198242
5050.176772	0.091633	1.238495	7202.050781
5050.177676	0.091648	1.238495	7284.900391
5050.178568	0.091666	1.238495	7366.666504
5050.179503	0.091652	1.238495	7452.360840
5051.224016	1.038351	1.237685	461.027771
5051.224911	1.462936	1.237685	1770.355225
5051.225885	1.447643	1.237685	3180.359375
5051.226801	1.411337	1.237685	4473.143555
5051.227706	1.376133	1.237685	5718.543945
5051.228658	0.937588	1.237685	6611.127441
5051.229558	0.108937	1.237685	6709.170410
5051.230457	0.091512	1.237685	6791.439941
5051.231340	0.091619	1.237685	6872.339355
5051.232276	0.091666	1.237685	6958.139160
5051.233181	0.091597	1.237685	7041.034180
5051.234088	0.091494	1.237685	7124.019531
5051.235010	0.091622	1.237685	7208.495117
5051.235904	0.091597	1.237685	7290.382324
5051.236850	0.091560	1.237685	7376.998047
5051.237749	0.091586	1.237685	7459.333496
5052.260829	1.041306	1.233818	469.629059
5052.261721	1.463584	1.233818	1775.145874
5052.262677	1.447606	1.233818	3159.057373
5052.263603	1.411410	1.233818	4466.022949
5052.264514	1.375939	1.233818	5719.502930
5052.265435	0.937236	1.233818	6582.697754
5052.266371	0.106384	1.233818	6682.273437
5052.267278	0.091538	1.233818	6765.298340
5052.268167	0.091615	1.233818	6846.744141
5052.269113	0.091659	1.233818	6933.453613
5052.270008	0.091641	1.233818	7015.472168
5052.270909	0.091670	1.233818	7098.066895
5052.271793	0.091619	1.233818	7179.057617
5052.272726	0.091732	1.233818	7264.643555
5052.273623	0.091655	1.233818	7346.858398
5052.274514	0.091589	1.233818	7428.464355
5053.319129	1.047565	1.237794	468.261444
5053.320048	1.464020	1.237794	1813.695679
5053.320953	1.448888	1.237794	3124.939209
5053.321879	1.413058	1.237794	4433.430664
5053.322798	1.376898	1.237794	5698.799805
5053.323718	0.989945	1.237794	6609.549316
5053.324607	0.116730	1.237794	6713.322266
5053.325556	0.091674	1.237794	6800.320312
5053.326467	0.091611	1.237794	6883.778320
5053.327356	0.091534	1.237794	6965.152344
5053.328272	0.091608	1.237794	7049.064941
5053.329200	0.091754	1.237794	7134.212891
5053.330112	0.091575	1.237794	7217.729004
5053.331013	0.091589	1.237794	7300.250977
5053.331938	0.091604	1.237794	7384.984863
5053.332844	0.091549	1.237794	7467.928223
5054.355427	1.062004	1.218925	482.149963
5054.356348	1.464357	1.218925	1830.822510
5054.357253	1.448309	1.218925	3141.542480
5054.358187	1.412073	1.218925	4460.418457
5054.359108	1.375869	1.218925	5727.593750
5054.360039	0.947120	1.218925	6609.362793
5054.360928	0.111046	1.218925	6708.083008
5054.361875	0.091560	1.218925	6794.790527
5054.362777	0.091567	1.218925	6877.384277
5054.363671	0.091611	1.218925	6959.284668
5054.364560	0.091589	1.218925	7040.707520
5054.365494	0.091575	1.218925	7126.238281
5054.366405	0.091549	1.218925	7209.639648
5054.367303	0.091633	1.218925	7291.926270
5054.368225	0.091608	1.218925	7376.388672
5054.369131	0.091674	1.218925	7459.444824
5055.413710	1.037622	1.241976	455.516113
5055.414607	1.462874	1.241976	1767.713745
5055.415563	1.448335	1.241976	3152.322021
5055.416480	1.412205	1.241976	4447.313477
5055.417378	1.377213	1.241976	5684.050781
5055.418348	0.940078	1.241976	6595.926758
5055.419246	0.109204	1.241976	6693.992187
5055.420143	0.091571	1.241976	6776.131348
5055.421035	0.091626	1.241976	6857.861816
5055.421966	0.091615	1.241976	6943.155273
5055.422869	0.091549	1.241976	7025.824219
5055.423767	0.091637	1.241976	7108.114258
5055.424678	0.091677	1.241976	7191.632324
5055.425603	0.091633	1.241976	7276.393066
5055.426509	0.091586	1.241976	7359.369629
5055.427400	0.091688	1.241976	7441.063965
5056.450506	1.030371	1.226390	448.211426
5056.451455	1.463221	1.226390	1836.808594
5056.452378	1.447738	1.226390	3173.070801
5056.453283	1.412032	1.226390	4450.959961
5056.454180	1.377041	1.226390	5686.166016
5056.455161	0.927858	1.226390	6596.394531
5056.456058	0.107516	1.226390	6692.836426
5056.456964	0.091571	1.226390	6775.799805
5056.457856	0.091619	1.226390	6857.523437
5056.458796	0.091718	1.226390	6943.737793
5056.459705	0.091490	1.226390	7026.902832
5056.460592	0.091516	1.226390	7108.077637
5056.461520	0.091685	1.226390	7193.161133
5056.462427	0.091575	1.226390	7276.219238
5056.463331	0.091611	1.226390	7359.035645
5056.464222	0.091534	1.226390	7440.592773
5057.508369	1.101936	1.226531	548.764099
5057.509283	1.465708	1.226531	1888.421143
5057.510186	1.447181	1.226531	3195.226074
5057.511082	1.411183	1.226531	4459.645996
5057.512034	1.374807	1.226531	5768.462402
5057.512964	0.912019	1.226531	6616.640137
5057.513859	0.106619	1.226531	6712.063965
5057.514796	0.091648	1.226531	6797.937988
5057.515702	0.091666	1.226531	6880.987793
5057.516607	0.091644	1.226531	6963.925781
5057.517497	0.091622	1.226531	7045.469727
5057.518432	0.091615	1.226531	7131.129883
5057.519329	0.091575	1.226531	7213.272461
5057.520227	0.091608	1.226531	7295.536133
5057.521127	0.091696	1.226531	7378.062012
5057.522065	0.091721	1.226531	7464.096680
5058.545106	1.039849	1.223006	460.652954
5058.546025	1.463957	1.223006	1806.029785
5058.546935	1.448866	1.223006	3124.497803
5058.547879	1.412578	1.223006	4457.971680
5058.548789	1.376609	1.223006	5710.685547
5058.549705	0.984353	1.223006	6612.353027
5058.550591	0.116049	1.223006	6715.171875
5058.551544	0.091589	1.223006	6802.456543
5058.552449	0.091659	1.223006	6885.407715
5058.553350	0.091567	1.223006	6967.910156
5058.554242	0.091630	1.223006	7049.643555
5058.555195	0.091696	1.223006	7137.029297
5058.556101	0.091582	1.223006	7220.002441
5058.556996	0.091542	1.223006	7301.932129
5058.557932	0.091663	1.223006	7387.728516
5058.558833	0.091688	1.223006	7470.339844
5059.603914	1.038955	1.207356	457.140228
5059.604872	1.463225	1.207356	1858.909912
5059.605796	1.447463	1.207356	3196.366211
5059.606704	1.411487	1.207356	4477.996094
5059.607602	1.376305	1.207356	5713.917969
5059.608582	0.898835	1.207356	6594.776855
5059.609489	0.105004	1.207356	6690.015137
5059.610380	0.091538	1.207356	6771.575684
5059.611315	0.091571	1.207356	6857.194824
5059.612218	0.091600	1.207356	6939.910156
5059.613112	0.091637	1.207356	7021.833496
5059.613997	0.091622	1.207356	7102.919434
5059.614928	0.091626	1.207356	7188.223145
5059.615836	0.091600	1.207356	7271.396484
5059.616732	0.091641	1.207356	7353.506348
5059.617651	0.091582	1.207356	7437.670410
5060.639696	1.034297	1.243434	456.124908
5060.640592	1.463126	1.243434	1767.085937
5060.641553	1.448236	1.243434	3158.840820
5060.642466	1.412256	1.243434	4448.230469
5060.643369	1.376917	1.243434	5691.585937
5060.644319	0.952332	1.243434	6596.300781
5060.645235	0.108699	1.243434	6695.868652
5060.646136	0.091483	1.243434	6778.294922
5060.647051	0.091637	1.243434	6862.142578
5060.647946	0.091608	1.243434	6944.131348
5060.648931	0.091630	1.243434	7034.386719
5060.649833	0.091663	1.243434	7117.066406
5060.650754	0.091633	1.243434	7201.460449
5060.651644	0.091575	1.243434	7282.961914
5060.652592	0.091652	1.243434	7369.847656
5060.653482	0.091622	1.243434	7451.391602
5061.698512	1.040266	1.225713	458.757385
5061.699415	1.463493	1.225713	1780.291016
5061.700309	1.450166	1.225713	3076.739502
5061.701276	1.412662	1.225713	4442.784180
5061.702188	1.377144	1.225713	5698.739258
5061.703100	1.002059	1.225713	6612.617187
5061.703987	0.118085	1.225713	6717.358398
5061.704939	0.091615	1.225713	6804.575684
5061.705846	0.091560	1.225713	6887.620605
5061.706743	0.091534	1.225713	6969.727051
5061.707678	0.091659	1.225713	7055.428223
5061.708576	0.091729	1.225713	7137.800293
5061.709483	0.091600	1.225713	7220.881836
5061.710403	0.091556	1.225713	7305.113770
5061.711291	0.091600	1.225713	7386.455078
5061.712235	0.091619	1.225713	7472.942871
5062.733774	1.042115	1.224037	460.615021
5062.734749	1.465752	1.224037	1889.723022
5062.735665	1.446680	1.224037	3214.881592
5062.736562	1.411359	1.224037	4480.870117
5062.737491	1.375635	1.224037	5758.834961
5062.738412	0.935233	1.224037	6620.184570
5062.739311	0.108516	1.224037	6717.740234
5062.740199	0.091509	1.224037	6799.000000
5062.741139	0.091615	1.224037	6885.118164
5062.742049	0.091593	1.224037	6968.467773
5062.742956	0.091670	1.224037	7051.612305
5062.743845	0.091571	1.224037	7133.019043
5062.744786	0.091630	1.224037	7219.242676
5062.745701	0.091630	1.224037	7303.083984
5062.746592	0.091604	1.224037	7384.703125
5062.747519	0.091718	1.224037	7469.725098
5063.793610	1.035952	1.224908	454.782959
5063.794551	1.463470	1.224908	1831.908691
5063.795485	1.447507	1.224908	3183.880615
5063.796392	1.411864	1.224908	4464.441406
5063.797325	1.376008	1.224908	5748.257324
5063.798241	0.948787	1.224908	6617.345703
5063.799142	0.110596	1.224908	6716.992187
5063.800025	0.091509	1.224908	6797.794434
5063.800970	0.091666	1.224908	6884.418945
5063.801878	0.091648	1.224908	6967.635254
5063.802790	0.091578	1.224908	7051.154785
5063.803683	0.091586	1.224908	7132.940918
5063.804631	0.091677	1.224908	7219.851074
5063.805536	0.091692	1.224908	7302.832031
5063.806438	0.091611	1.224908	7385.465332
5063.807363	0.091652	1.224908	7470.243164
5064.827871	1.058093	1.239897	479.316284
5064.828792	1.464364	1.239897	1827.995483
5064.829690	1.448785	1.239897	3129.004883
5064.830639	1.412186	1.239897	4469.169922
5064.831555	1.376202	1.239897	5729.771484
5064.832462	0.975546	1.239897	6614.591309
5064.833349	0.114880	1.239897	6716.490234
5064.834295	0.091641	1.239897	6803.182129
5064.835193	0.091626	1.239897	6885.462402
5064.836096	0.091655	1.239897	6968.227051
5064.836987	0.091600	1.239897	7049.842773
5064.837935	0.091685	1.239897	7136.759766
5064.838838	0.091578	1.239897	7219.455078
5064.839731	0.091663	1.239897	7301.309570
5064.840672	0.091582	1.239897	7387.488281
5064.841570	0.091622	1.239897	7469.765137
5065.888781	1.106140	1.214518	549.751648
5065.889695	1.465953	1.214518	1889.633057
5065.890589	1.447427	1.214518	3183.632324
5065.891529	1.410784	1.214518	4509.769043
5065.892455	1.374609	1.214518	5782.657227
5065.893396	0.887867	1.214518	6618.140625
5065.894283	0.105450	1.214518	6711.675293
5065.895241	0.091505	1.214518	6799.337402
5065.896136	0.091571	1.214518	6881.293457
5065.897024	0.091575	1.214518	6962.611816
5065.897946	0.091641	1.214518	7047.104492
5065.898858	0.091571	1.214518	7130.617187
5065.899758	0.091608	1.214518	7213.063965
5065.900651	0.091608	1.214518	7294.869629
5065.901581	0.091626	1.214518	7380.082031
5065.902500	0.091589	1.214518	7464.252441
5066.922452	1.037564	1.206841	462.753357
5066.923348	1.463221	1.206841	1773.799805
5066.924291	1.448196	1.206841	3139.448242
5066.925216	1.412014	1.206841	4445.561523
5066.926120	1.376880	1.206841	5690.260742
5066.927078	0.949896	1.206841	6600.261230
5066.927984	0.108896	1.206841	6698.921387
5066.928882	0.091512	1.206841	6781.099609
5066.929774	0.091527	1.206841	6862.741699
5066.930715	0.091696	1.206841	6949.027344
5066.931622	0.091637	1.206841	7032.142090
5066.932518	0.091560	1.206841	7114.179687
5066.933405	0.091549	1.206841	7195.383789
5066.934341	0.091688	1.206841	7281.204102
5066.935247	0.091575	1.206841	7364.170898
5066.936149	0.091586	1.206841	7446.781250
5067.983817	1.029042	1.226583	446.604126
5067.984770	1.464181	1.226583	1841.968628
5067.985690	1.446965	1.226583	3173.176758
5067.986627	1.410677	1.226583	4494.981445
5067.987522	1.375455	1.226583	5726.013672
5067.988512	0.873728	1.226583	6591.004395
5067.989418	0.102550	1.226583	6683.914551
5067.990306	0.091501	1.226583	6765.167969
5067.991241	0.091619	1.226583	6850.831543
5067.992158	0.091531	1.226583	6934.765137
5067.993072	0.091593	1.226583	7018.480957
5067.993964	0.091560	1.226583	7100.152344
5067.994907	0.091564	1.226583	7186.497070
5067.995811	0.091512	1.226583	7269.224121
5067.996703	0.091641	1.226583	7350.967773
5067.997627	0.091666	1.226583	7435.667480
5069.017103	1.110414	1.187214	561.869385
5069.018025	1.466045	1.187214	1913.562744
5069.018933	1.446489	1.187214	3226.975098
5069.019827	1.410707	1.187214	4488.146973
5069.020786	1.373829	1.187214	5805.649414
5069.021708	0.893240	1.187214	6629.216309
5069.022608	0.105033	1.187214	6723.746094
5069.023550	0.091670	1.187214	6810.099121
5069.024448	0.091575	1.187214	6892.333008
5069.025347	0.091578	1.187214	6974.662109
5069.026236	0.091575	1.187214	7056.072266
5069.027168	0.091648	1.187214	7141.488281
5069.028073	0.091586	1.187214	7224.373535
5069.028977	0.091578	1.187214	7307.160156
5069.029893	0.091578	1.187214	7391.045898
5069.030784	0.091604	1.187214	7472.665039
5070.078460	1.093894	1.201302	528.350830
5070.079374	1.465433	1.201302	1867.756836
5070.080277	1.446885	1.201302	3174.293945
5070.081237	1.410055	1.201302	4527.946777
5070.082150	1.374558	1.201302	5782.918457
5070.083055	0.916901	1.201302	6612.713379
5070.083992	0.104528	1.201302	6710.655762
5070.084900	0.091472	1.201302	6793.712402
5070.085789	0.091520	1.201302	6875.073242
5070.086720	0.091549	1.201302	6960.305664
5070.087625	0.091589	1.201302	7043.193848
5070.088521	0.091516	1.201302	7125.192383
5070.089415	0.091553	1.201302	7207.040527
5070.090374	0.091597	1.201302	7294.881836
5070.091272	0.091659	1.201302	7377.191406
5070.092179	0.091600	1.201302	7460.272949
5071.111122	1.044928	1.209076	463.947998
5071.112034	1.463734	1.209076	1798.873535
5071.112962	1.448287	1.209076	3142.884277
5071.113866	1.412523	1.209076	4419.805176
5071.114839	1.375338	1.209076	5758.009277
5071.115756	0.936354	1.209076	6616.645508
5071.116650	0.109094	1.209076	6714.175781
5071.117589	0.091619	1.209076	6800.205566
5071.118503	0.091575	1.209076	6883.904785
5071.119420	0.091633	1.209076	6967.932617
5071.120307	0.091582	1.209076	7049.166016
5071.121235	0.091637	1.209076	7134.205078
5071.122142	0.091487	1.209076	7217.183594
5071.123065	0.091761	1.209076	7301.879395
5071.123953	0.091688	1.209076	7383.298340
5071.124903	0.091553	1.209076	7470.273437
5072.174045	1.053409	1.222503	474.034241
5072.174969	1.463906	1.222503	1826.683594
5072.175875	1.448547	1.222503	3139.067383
5072.176776	1.412410	1.222503	4411.648437
5072.177716	1.376199	1.222503	5705.275391
5072.178634	0.975509	1.222503	6600.792480
5072.179526	0.114214	1.222503	6702.671387
5072.180464	0.091615	1.222503	6788.606445
5072.181373	0.091644	1.222503	6871.911133
5072.182272	0.091630	1.222503	6954.286133
5072.183198	0.091575	1.222503	7039.084473
5072.184102	0.091615	1.222503	7121.904297
5072.184991	0.091578	1.222503	7203.317383
5072.185878	0.091630	1.222503	7284.592773
5072.186809	0.091560	1.222503	7369.834961
5072.187716	0.091630	1.222503	7452.942871
5073.205708	1.039980	1.203690	456.551392
5073.206671	1.464803	1.203690	1867.157104
5073.207587	1.447057	1.203690	3192.661133
5073.208498	1.411406	1.203690	4478.452148
5073.209397	1.376070	1.203690	5715.539551
5073.210365	0.916974	1.203690	6603.170410
5073.211274	0.106626	1.203690	6700.093262
5073.212167	0.091553	1.203690	6781.849609
5073.213102	0.091674	1.203690	6867.564453
5073.214007	0.091641	1.203690	6950.499023
5073.214904	0.091582	1.203690	7032.647949
5073.215797	0.091553	1.203690	7114.404297
5073.216731	0.091615	1.203690	7199.972656
5073.217629	0.091578	1.203690	7282.209961
5073.218534	0.091611	1.203690	7365.118164
5073.219455	0.091641	1.203690	7449.519043
5074.268623	1.042299	1.212472	459.653717
5074.269566	1.462903	1.212472	1839.171021
5074.270497	1.447240	1.212472	3186.551514
5074.271412	1.411139	1.212472	4477.743652
5074.272315	1.376078	1.212472	5720.341797
5074.273270	0.926558	1.212472	6605.204102
5074.274169	0.107648	1.212472	6701.979492
5074.275073	0.091538	1.212472	6784.729980
5074.275958	0.091608	1.212472	6865.802734
5074.276902	0.091688	1.212472	6952.356445
5074.277809	0.091597	1.212472	7035.434570
5074.278701	0.091644	1.212472	7117.181152
5074.279632	0.091622	1.212472	7202.481445
5074.280539	0.091659	1.212472	7285.616211
5074.281442	0.091575	1.212472	7368.308105
5074.282332	0.091512	1.212472	7449.754395
5075.300823	1.055559	1.190864	475.001556
5075.301738	1.464496	1.190864	1815.015381
5075.302637	1.448379	1.190864	3117.107910
5075.303615	1.410864	1.190864	4496.933105
5075.304530	1.375261	1.190864	5755.296875
5075.305437	0.950244	1.190864	6617.168457
5075.306388	0.109003	1.190864	6720.830078
5075.307292	0.091615	1.190864	6803.649902
5075.308193	0.091611	1.190864	6886.191895
5075.309079	0.091626	1.190864	6967.372559
5075.310014	0.091619	1.190864	7053.036133
5075.310922	0.091644	1.190864	7136.249023
5075.311821	0.091652	1.190864	7218.644043
5075.312743	0.091644	1.190864	7303.140137
5075.313664	0.091659	1.190864	7387.558105
5075.314568	0.091622	1.190864	7470.384766
5076.363220	1.048802	1.201640	466.717102
5076.364140	1.464133	1.201640	1813.719727
5076.365049	1.448807	1.201640	3130.685547
5076.365977	1.412659	1.201640	4441.632812
5076.366894	1.376594	1.201640	5703.969727
5076.367826	0.970239	1.201640	6608.232422
5076.368714	0.113925	1.201640	6709.397461
5076.369646	0.091663	1.201640	6794.827148
5076.370551	0.091582	1.201640	6877.708984
5076.371454	0.091501	1.201640	6960.334961
5076.372343	0.091520	1.201640	7041.695801
5076.373288	0.091571	1.201640	7128.230469
5076.374193	0.091571	1.201640	7211.102051
5076.375092	0.091505	1.201640	7293.365234
5076.376012	0.091655	1.201640	7377.687988
5076.376924	0.091630	1.201640	7461.254395
5077.396468	1.083673	1.153912	512.577393
5077.397390	1.464851	1.153912	1863.170166
5077.398291	1.447760	1.153912	3167.602051
5077.399222	1.411622	1.153912	4481.822266
5077.400138	1.375986	1.153912	5742.225586
5077.401063	0.944180	1.153912	6615.591797
5077.401954	0.110475	1.153912	6714.024902
5077.402899	0.091505	1.153912	6800.497070
5077.403808	0.091560	1.153912	6883.725098
5077.404712	0.091604	1.153912	6966.535156
5077.405601	0.091575	1.153912	7047.945312
5077.406553	0.091648	1.153912	7135.194336
5077.407459	0.091582	1.153912	7218.167480
5077.408351	0.091571	1.153912	7299.848633
5077.409289	0.091589	1.153912	7385.759277
5077.410196	0.091688	1.153912	7468.920410
5078.457812	1.038182	1.200423	463.029327
5078.458708	1.462991	1.200423	1773.868896
5078.459682	1.447485	1.200423	3183.719727
5078.460589	1.411556	1.200423	4464.001465
5078.461491	1.376572	1.200423	5705.669922
5078.462427	0.937280	1.200423	6582.964355
5078.463368	0.106179	1.200423	6682.878906
5078.464274	0.091553	1.200423	6765.825684
5078.465172	0.091516	1.200423	6848.007324
5078.466103	0.091619	1.200423	6933.304199
5078.467006	0.091648	1.200423	7016.062500
5078.467905	0.091575	1.200423	7098.388184
5078.468791	0.091582	1.200423	7179.529785
5078.469737	0.091699	1.200423	7266.277344
5078.470638	0.091589	1.200423	7348.799316
5078.471531	0.091571	1.200423	7430.572266
5079.491542	1.039819	1.171581	465.839020
5079.492437	1.463643	1.171581	1775.799072
5079.493377	1.448976	1.171581	3137.836426
5079.494299	1.412571	1.171581	4440.226562
5079.495194	1.377389	1.171581	5672.989746
5079.496136	0.963530	1.171581	6580.635254
5079.497060	0.110848	1.171581	6683.059082
5079.497960	0.091505	1.171581	6765.413574
5079.498849	0.091659	1.171581	6846.898437
5079.499785	0.091600	1.171581	6932.636230
5079.500705	0.091615	1.171581	7016.921875
5079.501603	0.091619	1.171581	7099.195312
5079.502488	0.091553	1.171581	7180.219727
5079.503432	0.091670	1.171581	7266.756348
5079.504327	0.091560	1.171581	7348.702637
5079.505219	0.091622	1.171581	7430.429687
5080.552450	1.076847	1.199698	530.885498
5080.553366	1.465627	1.199698	1873.400269
5080.554271	1.447247	1.199698	3183.159180
5080.555169	1.411549	1.199698	4450.730469
5080.556118	1.375239	1.199698	5755.832520
5080.557042	0.928916	1.199698	6614.150879
5080.557936	0.108226	1.199698	6710.905273
5080.558848	0.091512	1.199698	6794.364746
5080.559775	0.091692	1.199698	6879.363281
5080.560691	0.091498	1.199698	6963.175293
5080.561584	0.091549	1.199698	7044.928711
5080.562475	0.091630	1.199698	7126.570801
5080.563406	0.091630	1.199698	7211.877930
5080.564321	0.091549	1.199698	7295.645508
5080.565240	0.091597	1.199698	7379.822754
5080.566134	0.091578	1.199698	7461.693848
5081.586146	1.054841	1.171935	471.514038
5081.587070	1.464115	1.171935	1824.356201
5081.587968	1.448661	1.171935	3125.253662
5081.588905	1.412454	1.171935	4448.722656
5081.589818	1.376349	1.171935	5705.329102
5081.590729	0.991395	1.171935	6608.490234
5081.591617	0.116656	1.171935	6712.081055
5081.592569	0.091593	1.171935	6799.277832
5081.593477	0.091659	1.171935	6882.503906
5081.594382	0.091659	1.171935	6965.455078
5081.595271	0.091589	1.171935	7046.877930
5081.596215	0.091626	1.171935	7133.373047
5081.597127	0.091564	1.171935	7216.879395
5081.598016	0.091571	1.171935	7298.286133
5081.598948	0.091696	1.171935	7383.746582
5081.599852	0.091765	1.171935	7466.702148
5082.646495	1.054746	1.191956	472.526276
5082.647396	1.463855	1.191956	1791.459473
5082.648294	1.449258	1.191956	3092.893066
5082.649247	1.412326	1.191956	4438.839355
5082.650164	1.376700	1.191956	5701.273437
5082.651080	0.987407	1.191956	6605.738281
5082.652004	0.114532	1.191956	6711.566406
5082.652921	0.091505	1.191956	6795.476562
5082.653834	0.091571	1.191956	6879.081055
5082.654726	0.091619	1.191956	6960.804687
5082.655657	0.091725	1.191956	7046.200684
5082.656564	0.091593	1.191956	7129.275391
5082.657464	0.091659	1.191956	7211.768555
5082.658353	0.091619	1.191956	7293.217773
5082.659284	0.091571	1.191956	7378.470215
5082.660194	0.091564	1.191956	7461.792969
5083.681230	1.039753	1.153191	459.571014
5083.682127	1.463057	1.153191	1771.932739
5083.683101	1.447361	1.153191	3181.662109
5083.684008	1.411589	1.153191	4461.973633
5083.684905	1.376638	1.153191	5696.818359
5083.685888	0.913085	1.153191	6594.380859
5083.686802	0.105524	1.153191	6690.829590
5083.687697	0.091571	1.153191	6772.785645
5083.688625	0.091597	1.153191	6857.787598
5083.689533	0.091567	1.153191	6940.930664
5083.690446	0.091611	1.153191	7024.571777
5083.691342	0.091630	1.153191	7106.671875
5083.692296	0.091490	1.153191	7193.953613
5083.693197	0.091611	1.153191	7276.495605
5083.694101	0.091560	1.153191	7359.266113
5083.694988	0.091534	1.153191	7440.457031
5084.741063	1.029379	1.203239	446.750336
5084.742007	1.463350	1.203239	1828.152344
5084.742932	1.447852	1.203239	3167.415039
5084.743851	1.411699	1.203239	4464.766602
5084.744746	1.376616	1.203239	5696.837891
5084.745712	0.934867	1.203239	6599.919434
5084.746605	0.109175	1.203239	6697.412598
5084.747507	0.091597	1.203239	6780.032715
5084.748399	0.091567	1.203239	6861.710937
5084.749340	0.091622	1.203239	6947.927734
5084.750251	0.091527	1.203239	7031.309082
5084.751151	0.091564	1.203239	7113.716309
5084.752071	0.091586	1.203239	7197.975098
5084.752963	0.091505	1.203239	7279.597656
5084.753914	0.091556	1.203239	7366.667969
5084.754834	0.091586	1.203239	7450.926758
5085.776342	1.048202	1.141090	468.546265
5085.777254	1.464027	1.141090	1803.738892
5085.778149	1.449437	1.141090	3100.985352
5085.779113	1.412157	1.141090	4462.304687
5085.780024	1.376459	1.141090	5716.258789
5085.780935	0.980995	1.141090	6609.945312
5085.781885	0.113917	1.141090	6718.166504
5085.782781	0.091450	1.141090	6800.105957
5085.783679	0.091582	1.141090	6882.346680
5085.784569	0.091652	1.141090	6963.916504
5085.785505	0.091619	1.141090	7049.671387
5085.786408	0.091615	1.141090	7132.399902
5085.787312	0.091622	1.141090	7215.226562
5085.788199	0.091593	1.141090	7296.469727
5085.789145	0.091652	1.141090	7383.172363
5085.790050	0.091520	1.141090	7465.997559
5086.835687	1.061898	1.178956	484.225525
5086.836619	1.464459	1.178956	1849.101562
5086.837515	1.448090	1.178956	3146.589844
5086.838458	1.411871	1.178956	4477.984375
5086.839364	1.375660	1.178956	5724.332520
5086.840281	0.967284	1.178956	6611.332031
5086.841172	0.113522	1.178956	6712.479980
5086.842111	0.091542	1.178956	6798.437500
5086.843014	0.091560	1.178956	6881.116211
5086.843925	0.091410	1.178956	6964.390625
5086.844848	0.091567	1.178956	7048.907227
5086.845737	0.091490	1.178956	7130.242187
5086.846686	0.091527	1.178956	7217.101562
5086.847578	0.091509	1.178956	7298.727539
5086.848468	0.091461	1.178956	7380.127930
5086.849405	0.091575	1.178956	7465.933594
5087.870923	1.033894	1.163866	451.811707
5087.871878	1.464532	1.163866	1850.440186
5087.872797	1.447720	1.163866	3180.894531
5087.873699	1.411677	1.163866	4454.227539
5087.874617	1.376177	1.163866	5717.557617
5087.875530	0.951801	1.163866	6586.551758
5087.876488	0.105959	1.163866	6688.061035
5087.877385	0.091538	1.163866	6770.170898
5087.878276	0.091630	1.163866	6851.812988
5087.879200	0.091659	1.163866	6936.505859
5087.880115	0.091663	1.163866	7020.376953
5087.881033	0.091556	1.163866	7104.425781
5087.881921	0.091582	1.163866	7185.750488
5087.882859	0.091652	1.163866	7271.719727
5087.883760	0.091531	1.163866	7354.188965
5087.884671	0.091564	1.163866	7437.603516
5088.930256	1.038047	1.191557	458.816711
5088.931148	1.462939	1.191557	1763.758545
5088.932085	1.448635	1.191557	3121.129883
5088.933018	1.412227	1.191557	4438.737305
5088.933926	1.376975	1.191557	5689.030762
5088.934868	0.972737	1.191557	6605.348633
5088.935783	0.110215	1.191557	6706.195312
5088.936690	0.091527	1.191557	6789.210449
5088.937576	0.091586	1.191557	6870.355469
5088.938522	0.091648	1.191557	6957.054199
5088.939422	0.091589	1.191557	7039.484375
5088.940320	0.091619	1.191557	7121.757812
5088.941204	0.091578	1.191557	7202.712891
5088.942140	0.091593	1.191557	7288.443848
5088.943048	0.091560	1.191557	7371.580566
5088.943945	0.091644	1.191557	7453.785645
5089.965588	1.069731	1.161953	548.772156
5089.966506	1.466250	1.161953	1894.789551
5089.967412	1.446324	1.161953	3205.159668
5089.968318	1.410245	1.161953	4482.841797
5089.969269	1.373734	1.161953	5789.262695
5089.970191	0.881646	1.161953	6602.139648
5089.971078	0.104524	1.161953	6694.852539
5089.972023	0.091534	1.161953	6781.352539
5089.972932	0.091553	1.161953	6864.574219
5089.973831	0.091633	1.161953	6946.952637
5089.974719	0.091593	1.161953	7028.287109
5089.975659	0.091652	1.161953	7114.439453
5089.976552	0.091567	1.161953	7196.208984
5089.977445	0.091608	1.161953	7278.014648
5089.978365	0.091615	1.161953	7362.300293
5089.979288	0.091750	1.161953	7446.985840
5091.025386	1.061481	1.191617	485.096649
5091.026314	1.464521	1.191617	1844.172607
5091.027210	1.448320	1.191617	3141.867676
5091.028160	1.411534	1.191617	4482.825195
5091.029063	1.376060	1.191617	5725.407227
5091.029976	0.971466	1.191617	6612.355469
5091.030861	0.114144	1.191617	6713.373047
5091.031807	0.091523	1.191617	6799.954102
5091.032722	0.091523	1.191617	6883.698242
5091.033625	0.091604	1.191617	6966.416504
5091.034544	0.091567	1.191617	7050.566895
5091.035457	0.091622	1.191617	7134.218262
5091.036365	0.091509	1.191617	7217.308105
5091.037259	0.091578	1.191617	7299.179199
5091.038198	0.091604	1.191617	7385.195312
5091.039088	0.091560	1.191617	7466.683594
5092.060121	1.062726	1.136679	481.414764
5092.061058	1.465217	1.136679	1854.323486
5092.061956	1.447742	1.136679	3154.395508
5092.062928	1.410227	1.136679	4525.136230
5092.063837	1.374939	1.136679	5774.956055
5092.064740	0.941913	1.136679	6625.503418
5092.065682	0.105092	1.136679	6724.499512
5092.066580	0.091534	1.136679	6806.697266
5092.067503	0.091611	1.136679	6891.254395
5092.068390	0.091589	1.136679	6972.494141
5092.069322	0.091637	1.136679	7057.899902
5092.070225	0.091608	1.136679	7140.621582
5092.071114	0.091567	1.136679	7222.024902
5092.072057	0.091772	1.136679	7308.566406
5092.072952	0.091611	1.136679	7390.558594
5092.073866	0.091523	1.136679	7474.210937
5093.119957	1.047854	1.190933	467.342865
5093.120863	1.463665	1.190933	1793.422974
5093.121762	1.449664	1.190933	3096.671143
5093.122711	1.412362	1.190933	4437.002930
5093.123628	1.376730	1.190933	5699.463867
5093.124537	0.999521	1.190933	6608.028809
5093.125469	0.114397	1.190933	6714.646973
5093.126386	0.091469	1.190933	6798.523437
5093.127301	0.091593	1.190933	6882.331055
5093.128188	0.091622	1.190933	6963.600098
5093.129135	0.091633	1.190933	7050.376953
5093.130028	0.091615	1.190933	7132.188965
5093.130919	0.091571	1.190933	7213.778809
5093.131841	0.091608	1.190933	7298.241211
5093.132765	0.091556	1.190933	7382.839355
5093.133667	0.091545	1.190933	7465.413086
5094.154738	1.079674	1.117118	506.367157
5094.155655	1.464946	1.117118	1849.722900
5094.156562	1.447950	1.117118	3163.013916
5094.157480	1.411981	1.117118	4459.212402
5094.158412	1.375972	1.117118	5741.618164
5094.159332	0.943315	1.117118	6609.468262
5094.160232	0.109600	1.117118	6708.107910
5094.161154	0.091487	1.117118	6792.458984
5094.162044	0.091516	1.117118	6873.908203
5094.162998	0.091578	1.117118	6961.273926
5094.163922	0.091637	1.117118	7045.946289
5094.164808	0.091556	1.117118	7127.065430
5094.165763	0.091641	1.117118	7214.582031
5094.166657	0.091652	1.117118	7296.518555
5094.167545	0.091648	1.117118	7377.901855
5094.168487	0.091750	1.117118	7464.331055
5095.214594	1.060573	1.191931	521.801697
5095.215517	1.465825	1.191931	1874.758301
5095.216440	1.446306	1.191931	3209.698730
5095.217340	1.410970	1.191931	4479.572266
5095.218289	1.374177	1.191931	5783.666504
5095.219211	0.896144	1.191931	6609.911133
5095.220109	0.105615	1.191931	6704.753418
5095.220996	0.091469	1.191931	6785.885742
5095.221944	0.091608	1.191931	6872.729980
5095.222839	0.091582	1.191931	6954.695801
5095.223726	0.091655	1.191931	7035.994141
5095.224668	0.091611	1.191931	7122.291992
5095.225578	0.091586	1.191931	7205.634766
5095.226477	0.091578	1.191931	7287.963867
5095.227387	0.091494	1.191931	7371.223633
5095.228303	0.091659	1.191931	7455.183105
5096.249320	1.045463	1.129021	479.867340
5096.250219	1.464130	1.129021	1796.119751
5096.251116	1.449133	1.129021	3095.992187
5096.252064	1.412190	1.129021	4434.748047
5096.252983	1.375920	1.129021	5699.218750
5096.253915	0.965185	1.129021	6598.771484
5096.254815	0.111826	1.129021	6699.415039
5096.255768	0.091534	1.129021	6786.647461
5096.256670	0.091549	1.129021	6869.224609
5096.257560	0.091608	1.129021	6950.755371
5096.258489	0.091575	1.129021	7035.828125
5096.259395	0.091553	1.129021	7118.774902
5096.260285	0.091619	1.129021	7200.315430
5096.261223	0.091670	1.129021	7286.301758
5096.262131	0.091699	1.129021	7369.564453
5096.263035	0.091622	1.129021	7452.391113
5097.309680	1.059038	1.166799	505.161133
5097.310594	1.465177	1.166799	1844.332886
5097.311539	1.446819	1.166799	3211.576660
5097.312456	1.410157	1.166799	4504.690918
5097.313388	1.374236	1.166799	5785.478516
5097.314297	0.917029	1.166799	6619.057617
5097.315244	0.102261	1.166799	6715.898437
5097.316152	0.091556	1.166799	6799.031738
5097.317077	0.091556	1.166799	6883.721191
5097.317963	0.091597	1.166799	6964.875977
5097.318914	0.091578	1.166799	7051.966797
5097.319809	0.091641	1.166799	7133.985352
5097.320702	0.091615	1.166799	7215.797363
5097.321635	0.091604	1.166799	7301.263672
5097.322538	0.091608	1.166799	7383.985352
5097.323454	0.091494	1.166799	7467.793945
5098.343940	1.069285	1.144019	530.365173
5098.344861	1.465855	1.144019	1880.417236
5098.345769	1.446804	1.144019	3194.115479
5098.346697	1.410322	1.144019	4502.894531
5098.347591	1.375411	1.144019	5732.512207
5098.348559	0.883784	1.144019	6588.015137
5098.349460	0.104458	1.144019	6682.131836
5098.350349	0.091425	1.144019	6763.408203
5098.351260	0.091494	1.144019	6846.759277
5098.352183	0.091450	1.144019	6931.167969
5098.353080	0.091549	1.144019	7013.287598
5098.353974	0.091564	1.144019	7095.145508
5098.354905	0.091586	1.144019	7180.411621
5098.355817	0.091553	1.144019	7263.907715
5098.356731	0.091553	1.144019	7347.586914
5098.357620	0.091527	1.144019	7428.954590
5099.404756	1.042961	1.172898	459.946014
5099.405655	1.463328	1.172898	1775.477539
5099.406552	1.449990	1.172898	3076.118652
5099.407503	1.412651	1.172898	4419.549805
5099.408424	1.376818	1.172898	5687.598633
5099.409342	0.968910	1.172898	6577.058105
5099.410265	0.110922	1.172898	6679.438965
5099.411166	0.091648	1.172898	6762.013672
5099.412108	0.091615	1.172898	6848.314941
5099.413006	0.091659	1.172898	6930.624512
5099.413899	0.091622	1.172898	7012.443359
5099.414842	0.091611	1.172898	7098.833008
5099.415733	0.091608	1.172898	7180.455566
5099.416649	0.091604	1.172898	7264.364746
5099.417541	0.091520	1.172898	7346.000488
5099.418471	0.091567	1.172898	7431.158203
5100.438497	1.058555	1.138238	482.700928
5100.439392	1.464141	1.138238	1793.106812
5100.440328	1.448793	1.138238	3149.176758
5100.441241	1.412604	1.138238	4438.883789
5100.442148	1.377023	1.138238	5687.843262
5100.443051	1.011057	1.138238	6600.828125
5100.444004	0.111083	1.138238	6706.689941
5100.444911	0.091516	1.138238	6789.694824
5100.445818	0.091593	1.138238	6872.769531
5100.446706	0.091542	1.138238	6954.058594
5100.447652	0.091685	1.138238	7040.791992
5100.448559	0.091619	1.138238	7123.890137
5100.449454	0.091604	1.138238	7205.875488
5100.450380	0.091582	1.138238	7290.680664
5100.451280	0.091666	1.138238	7373.180176
5100.452181	0.091578	1.138238	7455.692383
5101.499855	1.039369	1.166094	459.401031
5101.500813	1.463804	1.166094	1861.724854
5101.501733	1.447529	1.166094	3193.451660
5101.502634	1.411732	1.166094	4465.422363
5101.503575	1.375481	1.166094	5759.750000
5101.504507	0.916648	1.166094	6614.065918
5101.505415	0.106311	1.166094	6710.596191
5101.506304	0.091556	1.166094	6791.989746
5101.507239	0.091652	1.166094	6877.684082
5101.508147	0.091619	1.166094	6960.874023
5101.509048	0.091545	1.166094	7043.356445
5101.509936	0.091641	1.166094	7124.733398
5101.510882	0.091688	1.166094	7211.470703
5101.511791	0.091575	1.166094	7294.711914
5101.512685	0.091611	1.166094	7376.612305
5101.513623	0.091615	1.166094	7462.547363
5102.533075	1.047330	1.110769	470.251343
5102.534037	1.465422	1.110769	1879.987671
5102.534949	1.446976	1.110769	3199.629883
5102.535856	1.411249	1.110769	4479.632812
5102.536794	1.375426	1.110769	5769.782227
5102.537722	0.913715	1.110769	6617.709473
5102.538619	0.106589	1.110769	6713.320312
5102.539511	0.091538	1.110769	6794.972168
5102.540464	0.091604	1.110769	6882.270996
5102.541362	0.091659	1.110769	6964.580566
5102.542262	0.091553	1.110769	7046.978027
5102.543149	0.091655	1.110769	7128.276367
5102.544086	0.091586	1.110769	7214.092285
5102.544983	0.091494	1.110769	7296.162598
5102.545882	0.091593	1.110769	7378.504883
5102.546821	0.091630	1.110769	7464.544922
5103.594451	1.045334	1.160394	464.128510
5103.595355	1.463752	1.160394	1787.360718
5103.596249	1.449346	1.160394	3083.075684
5103.597223	1.411985	1.160394	4458.348633
5103.598141	1.376184	1.160394	5721.685547
5103.599054	0.972319	1.160394	6609.413086
5103.599997	0.112614	1.160394	6715.607422
5103.600900	0.091578	1.160394	6798.302734
5103.601815	0.091578	1.160394	6882.097168
5103.602706	0.091586	1.160394	6963.700195
5103.603645	0.091655	1.160394	7049.764648
5103.604539	0.091608	1.160394	7131.662109
5103.605437	0.091560	1.160394	7213.882812
5103.606330	0.091604	1.160394	7295.685059
5103.607281	0.091545	1.160394	7382.744629
5103.608192	0.091608	1.160394	7466.199219
5104.627172	1.060668	1.158629	482.603760
5104.628096	1.464437	1.158629	1835.743774
5104.628993	1.448690	1.158629	3135.218750
5104.629939	1.412238	1.158629	4471.195312
5104.630841	1.376367	1.158629	5712.678711
5104.631759	0.974429	1.158629	6607.204102
5104.632654	0.113749	1.158629	6709.009277
5104.633601	0.091582	1.158629	6795.737305
5104.634512	0.091626	1.158629	6879.208496
5104.635421	0.091534	1.158629	6962.413086
5104.636306	0.091589	1.158629	7043.469727
5104.637249	0.091670	1.158629	7129.914551
5104.638153	0.091586	1.158629	7212.708008
5104.639048	0.091589	1.158629	7294.680664
5104.639985	0.091622	1.158629	7380.530762
5104.640880	0.091655	1.158629	7462.562012
5105.689034	1.037820	1.142963	454.565094
5105.689996	1.463851	1.142963	1862.790039
5105.690916	1.447046	1.142963	3194.072266
5105.691835	1.410897	1.142963	4490.687012
5105.692729	1.375616	1.142963	5720.488281
5105.693694	0.911338	1.142963	6599.929199
5105.694603	0.106655	1.142963	6696.878906
5105.695498	0.091505	1.142963	6778.775879
5105.696407	0.091593	1.142963	6862.033691
5105.697302	0.091600	1.142963	6944.016113
5105.698238	0.091644	1.142963	7029.794922
5105.699141	0.091483	1.142963	7112.404297
5105.700031	0.091542	1.142963	7193.876465
5105.700969	0.091641	1.142963	7279.835449
5105.701885	0.091534	1.142963	7363.681152
5105.702802	0.091560	1.142963	7447.641602
5106.722249	1.037787	1.116977	455.588409
5106.723206	1.463811	1.116977	1856.455566
5106.724118	1.447489	1.116977	3176.565430
5106.725021	1.412153	1.116977	4451.739746
5106.725914	1.376920	1.116977	5681.329590
5106.726887	0.943971	1.116977	6599.813477
5106.727788	0.109523	1.116977	6698.493652
5106.728684	0.091512	1.116977	6780.488770
5106.729610	0.091593	1.116977	6865.303711
5106.730529	0.091582	1.116977	6949.467773
5106.731440	0.091531	1.116977	7032.852539
5106.732336	0.091608	1.116977	7114.933105
5106.733260	0.091718	1.116977	7199.680176
5106.734155	0.091611	1.116977	7281.672363
5106.735051	0.091637	1.116977	7363.779297
5106.735940	0.091619	1.116977	7445.228516
5107.784190	1.096274	1.135197	526.211670
5107.785106	1.465236	1.135197	1868.367432
5107.786037	1.446497	1.135197	3215.055664
5107.786932	1.410663	1.135197	4477.598633
5107.787894	1.374020	1.135197	5799.405762
5107.788813	0.895994	1.135197	6622.823730
5107.789701	0.105762	1.135197	6716.740234
5107.790650	0.091622	1.135197	6803.689941
5107.791553	0.091516	1.135197	6886.329102
5107.792445	0.091644	1.135197	6968.075684
5107.793383	0.091699	1.135197	7054.089355
5107.794280	0.091622	1.135197	7136.274414
5107.795187	0.091531	1.135197	7219.292969
5107.796075	0.091644	1.135197	7300.672852
5107.797012	0.091648	1.135197	7386.546875
5107.797915	0.091663	1.135197	7469.318359
5108.817416	1.099980	1.122721	538.990417
5108.818332	1.465503	1.122721	1881.391113
5108.819255	1.446559	1.122721	3216.564941
5108.820147	1.410831	1.122721	4475.026367
5108.821116	1.374111	1.122721	5806.540039
5108.822031	0.893910	1.122721	6624.467773
5108.822916	0.105864	1.122721	6718.157715
5108.823867	0.091575	1.122721	6805.245117
5108.824773	0.091531	1.122721	6888.171875
5108.825688	0.091582	1.122721	6971.969238
5108.826586	0.091545	1.122721	7054.177246
5108.827518	0.091597	1.122721	7139.545410
5108.828425	0.091512	1.122721	7222.547363
5108.829315	0.091582	1.122721	7304.055176
5108.830222	0.091564	1.122721	7387.103516
5108.831164	0.091523	1.122721	7473.318359
5109.878233	1.045708	1.140075	469.522919
5109.879127	1.463452	1.140075	1777.849121
5109.880083	1.447665	1.140075	3161.816895
5109.881003	1.411494	1.140075	4460.391602
5109.881908	1.376213	1.140075	5705.864746
5109.882853	0.950376	1.140075	6603.970215
5109.883759	0.109083	1.140075	6702.799805
5109.884665	0.091469	1.140075	6785.670410
5109.885587	0.091553	1.140075	6870.082031
5109.886475	0.091578	1.140075	6951.403809
5109.887429	0.091564	1.140075	7038.755371
5109.888329	0.091527	1.140075	7121.129883
5109.889221	0.091600	1.140075	7202.837402
5109.890135	0.091641	1.140075	7286.597168
5109.891065	0.091516	1.140075	7371.707031
5109.891961	0.091560	1.140075	7453.744629
5110.911961	1.052355	1.126830	469.350189
5110.912915	1.464792	1.126830	1866.762207
5110.913827	1.447386	1.126830	3186.778564
5110.914736	1.411600	1.126830	4469.923340
5110.915628	1.376283	1.126830	5697.567871
5110.916596	0.934852	1.126830	6602.504883
5110.917497	0.108190	1.126830	6699.983887
5110.918396	0.091458	1.126830	6782.204102
5110.919328	0.091520	1.126830	6867.500488
5110.920233	0.091648	1.126830	6950.441895
5110.921135	0.091531	1.126830	7033.002441
5110.922022	0.091494	1.126830	7114.157715
5110.922970	0.091560	1.126830	7200.956543
5110.923867	0.091611	1.126830	7283.131836
5110.924774	0.091567	1.126830	7366.183594
5110.925661	0.091586	1.126830	7447.419922
5111.972863	1.097025	1.133670	534.251221
5111.973781	1.465349	1.133670	1879.441650
5111.974693	1.447068	1.133670	3199.167480
5111.975590	1.411121	1.133670	4464.942383
5111.976547	1.374738	1.133670	5780.566406
5111.977469	0.915663	1.133670	6624.807617
5111.978360	0.107413	1.133670	6720.512695
5111.979303	0.091575	1.133670	6806.867676
5111.980205	0.091633	1.133670	6889.520996
5111.981100	0.091688	1.133670	6971.582031
5111.981987	0.091593	1.133670	7052.825195
5111.982919	0.091670	1.133670	7138.261719
5111.983822	0.091600	1.133670	7220.977051
5111.984723	0.091626	1.133670	7303.532227
5111.985609	0.091578	1.133670	7384.670898
5111.986542	0.091648	1.133670	7470.178223
5113.006592	1.059752	1.140699	521.398010
5113.007517	1.465562	1.140699	1877.042480
5113.008430	1.446676	1.140699	3197.857666
5113.009322	1.411340	1.140699	4456.773437
5113.010262	1.374917	1.140699	5749.195312
5113.011185	0.912448	1.140699	6591.384277
5113.012114	0.104132	1.140699	6688.123047
5113.013003	0.091582	1.140699	6769.539551
5113.013956	0.091564	1.140699	6856.799805
5113.014856	0.091648	1.140699	6939.283203
5113.015747	0.091611	1.140699	7020.908691
5113.016686	0.091615	1.140699	7106.935059
5113.017609	0.091754	1.140699	7191.624023
5113.018505	0.091659	1.140699	7273.750488
5113.019420	0.091626	1.140699	7357.588379
5113.020342	0.091688	1.140699	7442.125000
5114.067418	1.053065	1.122846	475.985474
5114.068311	1.463793	1.122846	1783.152466
5114.069272	1.447965	1.122846	3174.646973
5114.070167	1.412600	1.122846	4438.923828
5114.071077	1.377056	1.122846	5692.044434
5114.071980	0.991945	1.122846	6587.770508
5114.072921	0.111222	1.122846	6692.430176
5114.073833	0.091560	1.122846	6775.933105
5114.074736	0.091575	1.122846	6858.625000
5114.075667	0.091670	1.122846	6943.969727
5114.076573	0.091688	1.122846	7027.039062
5114.077477	0.091556	1.122846	7109.806152
5114.078363	0.091652	1.122846	7191.009277
5114.079318	0.091721	1.122846	7278.603027
5114.080222	0.091641	1.122846	7361.446289
5114.081122	0.091641	1.122846	7443.922852
5115.102210	1.056156	1.104392	522.797241
5115.103127	1.465968	1.104392	1867.089966
5115.104040	1.446947	1.104392	3188.152588
5115.104935	1.411633	1.104392	4451.564453
5115.105876	1.375210	1.104392	5745.636719
5115.106801	0.925924	1.104392	6602.116211
5115.107712	0.106663	1.104392	6699.285645
5115.108605	0.091556	1.104392	6781.045410
5115.109544	0.091549	1.104392	6867.009766
5115.110444	0.091582	1.104392	6949.433594
5115.111337	0.091688	1.104392	7031.311035
5115.112271	0.091641	1.104392	7116.903320
5115.113185	0.091674	1.104392	7200.692871
5115.114089	0.091545	1.104392	7283.449707
5115.114978	0.091648	1.104392	7364.924805
5115.115920	0.091641	1.104392	7451.250488
5116.161485	1.037062	1.123797	457.344269
5116.162443	1.465217	1.123797	1861.022461
5116.163365	1.447093	1.123797	3195.242676
5116.164276	1.411241	1.123797	4480.883789
5116.165169	1.375789	1.123797	5709.462891
5116.166133	0.922749	1.123797	6598.993164
5116.167048	0.106780	1.123797	6696.696777
5116.167940	0.091494	1.123797	6778.309570
5116.168874	0.091659	1.123797	6863.918945
5116.169769	0.091677	1.123797	6945.970215
5116.170672	0.091582	1.123797	7028.668945
5116.171561	0.091600	1.123797	7110.101562
5116.172498	0.091619	1.123797	7195.948242
5116.173400	0.091641	1.123797	7278.607910
5116.174303	0.091597	1.123797	7361.319824
5116.175234	0.091637	1.123797	7446.633789
5117.197267	1.040065	1.114270	460.748657
5117.198163	1.463298	1.114270	1771.863892
5117.199116	1.448192	1.114270	3151.990967
5117.200035	1.412029	1.114270	4449.645508
5117.200937	1.376810	1.114270	5691.528320
5117.201874	0.957048	1.114270	6588.282715
5117.202793	0.109149	1.114270	6688.590820
5117.203702	0.091505	1.114270	6771.769043
5117.204597	0.091556	1.114270	6853.711914
5117.205537	0.091655	1.114270	6939.867676
5117.206437	0.091608	1.114270	7022.314453
5117.207335	0.091604	1.114270	7104.574707
5117.208220	0.091578	1.114270	7185.621582
5117.209148	0.091597	1.114270	7270.623535
5117.210060	0.091512	1.114270	7354.083008
5117.210958	0.091564	1.114270	7436.307129
5118.255600	1.084138	1.144015	509.544922
5118.256520	1.464906	1.144015	1857.258423
5118.257428	1.447800	1.144015	3171.861084
5118.258322	1.412066	1.144015	4434.247559
5118.259279	1.375488	1.144015	5750.589844
5118.260206	0.940481	1.144015	6622.415527
5118.261101	0.109534	1.144015	6720.448242
5118.262051	0.091589	1.144015	6807.458008
5118.262955	0.091608	1.144015	6890.271484
5118.263857	0.091637	1.144015	6972.928223
5118.264741	0.091586	1.144015	7053.890137
5118.265675	0.091637	1.144015	7139.479004
5118.266576	0.091648	1.144015	7222.053711
5118.267480	0.091520	1.144015	7304.787598
5118.268382	0.091626	1.144015	7387.434082
5118.269304	0.091655	1.144015	7471.940430
5119.291915	1.086511	1.095989	549.774658
5119.292833	1.466115	1.095989	1895.667847
5119.293746	1.446259	1.095989	3216.102051
5119.294645	1.410963	1.095989	4484.557617
5119.295601	1.374002	1.095989	5798.103027
5119.296529	0.882001	1.095989	6616.599609
5119.297423	0.104077	1.095989	6709.644531
5119.298341	0.091531	1.095989	6793.669922
5119.299252	0.091597	1.095989	6877.114258
5119.300155	0.091531	1.095989	6959.766602
5119.301051	0.091641	1.095989	7041.876465
5119.301992	0.091597	1.095989	7128.068848
5119.302895	0.091699	1.095989	7210.873047
5119.303801	0.091615	1.095989	7293.875977
5119.304687	0.091611	1.095989	7375.043457
5119.305633	0.091637	1.095989	7461.731934
5120.350168	1.055632	1.132550	477.145782
5120.351067	1.463826	1.132550	1793.125000
5120.352041	1.446826	1.132550	3202.333496
5120.352951	1.411036	1.132550	4486.376465
5120.353863	1.375572	1.132550	5740.898437
5120.354770	0.935464	1.132550	6589.364258
5120.355720	0.106230	1.132550	6690.283203
5120.356625	0.091556	1.132550	6773.141602
5120.357522	0.091589	1.132550	6855.297363
5120.358438	0.091718	1.132550	6939.310547
5120.359334	0.091633	1.132550	7021.414062
5120.360289	0.091600	1.132550	7108.892578
5120.361200	0.091608	1.132550	7192.347168
5120.362087	0.091630	1.132550	7273.622559
5120.363040	0.091553	1.132550	7360.872070
5120.363939	0.091567	1.132550	7443.190918
5121.386466	1.060873	1.104295	482.697113
5121.387367	1.463972	1.104295	1801.735962
5121.388308	1.448181	1.104295	3164.474609
5121.389225	1.411945	1.104295	4459.227539
5121.390134	1.376495	1.104295	5710.461914
5121.391033	0.997222	1.104295	6606.964355
5121.391978	0.109127	1.104295	6710.089355
5121.392881	0.091556	1.104295	6792.764648
5121.393785	0.091608	1.104295	6875.578125
5121.394673	0.091615	1.104295	6956.932129
5121.395631	0.091626	1.104295	7044.709961
5121.396542	0.091586	1.104295	7128.144531
5121.397439	0.091553	1.104295	7210.267578
5121.398381	0.091611	1.104295	7296.565430
5121.399277	0.091648	1.104295	7378.682129
5121.400173	0.091498	1.104295	7460.664062
5122.444805	1.055962	1.120348	523.757141
5122.445721	1.465415	1.120348	1866.077393
5122.446621	1.447438	1.120348	3168.771484
5122.447515	1.412248	1.120348	4431.321777
5122.448453	1.375719	1.120348	5721.746094
5122.449381	0.939478	1.120348	6593.581055
5122.450290	0.107886	1.120348	6691.649414
5122.451177	0.091487	1.120348	6772.798340
5122.452140	0.091721	1.120348	6861.125977
5122.453046	0.091582	1.120348	6944.099121
5122.453945	0.091538	1.120348	7026.392090
5122.454891	0.091608	1.120348	7113.052734
5122.455788	0.091644	1.120348	7195.257812
5122.456686	0.091582	1.120348	7277.498535
5122.457572	0.091655	1.120348	7358.705078
5122.458500	0.091743	1.120348	7443.842773
5123.481548	1.052011	1.110318	463.936646
5123.482525	1.465994	1.110318	1896.212402
5123.483440	1.446559	1.110318	3219.813721
5123.484335	1.411179	1.110318	4482.819336
5123.485288	1.374943	1.110318	5793.139648
5123.486209	0.910474	1.110318	6631.686035
5123.487097	0.106985	1.110318	6726.688477
5123.488047	0.091505	1.110318	6813.618164
5123.488948	0.091641	1.110318	6896.186523
5123.489850	0.091615	1.110318	6978.823242
5123.490738	0.091626	1.110318	7060.187012
5123.491676	0.091622	1.110318	7146.128906
5123.492579	0.091545	1.110318	7228.794434
5123.493479	0.091611	1.110318	7311.244629
5123.494366	0.091622	1.110318	7392.513672
5123.495313	0.091593	1.110318	7479.252441
5124.539353	1.052644	1.103095	474.742462
5124.540257	1.464126	1.103095	1798.312378
5124.541192	1.448364	1.103095	3152.532959
5124.542120	1.411677	1.103095	4462.569336
5124.543034	1.376074	1.103095	5720.301270
5124.543948	0.966368	1.103095	6603.562012
5124.544901	0.107531	1.103095	6706.038574
5124.545802	0.091531	1.103095	6788.507812
5124.546697	0.091582	1.103095	6870.473633
5124.547583	0.091567	1.103095	6951.602539
5124.548521	0.091670	1.103095	7037.588867
5124.549427	0.091641	1.103095	7120.615234
5124.550325	0.091582	1.103095	7202.855957
5124.551261	0.091633	1.103095	7288.624512
5124.552167	0.091659	1.103095	7371.667480
5124.553069	0.091586	1.103095	7454.277832
5125.576159	1.055819	1.093572	480.397705
5125.577056	1.463881	1.093572	1793.498657
5125.577952	1.449760	1.093572	3092.483398
5125.578911	1.412457	1.093572	4447.029785
5125.579816	1.376448	1.093572	5692.714844
5125.580741	0.977168	1.093572	6596.595215
5125.581644	0.113639	1.093572	6699.210937
5125.582598	0.091523	1.093572	6786.524414
5125.583499	0.091523	1.093572	6868.986816
5125.584389	0.091582	1.093572	6950.494629
5125.585314	0.091611	1.093572	7035.235352
5125.586233	0.091490	1.093572	7119.314941
5125.587129	0.091571	1.093572	7201.362793
5125.588021	0.091567	1.093572	7283.041016
5125.588971	0.091527	1.093572	7369.991699
5125.589867	0.091516	1.093572	7451.990234
5126.633934	1.046250	1.110878	466.627502
5126.634911	1.466045	1.110878	1898.953369
5126.635832	1.446244	1.110878	3230.943848
5126.636739	1.410699	1.110878	4510.448242
5126.637675	1.374613	1.110878	5797.085937
5126.638594	0.902783	1.110878	6626.743652
5126.639504	0.105088	1.110878	6722.373535
5126.640405	0.091458	1.110878	6804.776855
5126.641295	0.091637	1.110878	6886.333984
5126.642203	0.091505	1.110878	6969.420410
5126.643126	0.091564	1.110878	7053.933594
5126.644038	0.091637	1.110878	7137.506348
5126.644927	0.091637	1.110878	7218.971680
5126.645883	0.091692	1.110878	7306.628906
5126.646782	0.091630	1.110878	7389.003906
5126.647673	0.091721	1.110878	7470.727539
5127.670733	1.051047	1.101778	464.562958
5127.671708	1.465770	1.101778	1893.688965
5127.672637	1.445881	1.101778	3236.912598
5127.673542	1.410491	1.101778	4513.406738
5127.674477	1.374631	1.101778	5798.687012
5127.675403	0.895408	1.101778	6627.834473
5127.676306	0.104436	1.101778	6722.140137
5127.677193	0.091564	1.101778	6803.356934
5127.678142	0.091754	1.101778	6890.431641
5127.679051	0.091582	1.101778	6973.679687
5127.679945	0.091615	1.101778	7055.583496
5127.680871	0.091626	1.101778	7140.429199
5127.681776	0.091633	1.101778	7223.357422
5127.682687	0.091571	1.101778	7306.778809
5127.683587	0.091699	1.101778	7389.308105
5127.684529	0.091692	1.101778	7475.681641
5128.729045	1.050784	1.104916	471.801910
5128.729945	1.463917	1.104916	1789.327393
5128.730892	1.448390	1.104916	3160.952637
5128.731819	1.411527	1.104916	4469.438477
5128.732728	1.376089	1.104916	5720.303223
5128.733632	0.985602	1.104916	6611.287109
5128.734583	0.108593	1.104916	6714.558594
5128.735485	0.091531	1.104916	6797.119141
5128.736385	0.091633	1.104916	6879.588867
5128.737274	0.091615	1.104916	6961.034668
5128.738212	0.091776	1.104916	7047.120605
5128.739119	0.091633	1.104916	7130.231934
5128.740018	0.091531	1.104916	7212.518066
5128.740950	0.091666	1.104916	7297.951172
5128.741859	0.091633	1.104916	7381.246094
5128.742763	0.091604	1.104916	7464.056152
5129.765869	1.063052	1.085644	491.129944
5129.766766	1.464067	1.085644	1804.398437
5129.767657	1.449188	1.085644	3095.625000
5129.768618	1.411725	1.085644	4452.292480
5129.769528	1.376012	1.085644	5704.463379
5129.770463	0.957052	1.085644	6599.307129
5129.771356	0.111390	1.085644	6698.778809
5129.772323	0.091582	1.085644	6787.338867
5129.773228	0.091626	1.085644	6870.260254
5129.774120	0.091567	1.085644	6951.938477
5129.775052	0.091659	1.085644	7037.364746
5129.775960	0.091622	1.085644	7120.557617
5129.776872	0.091542	1.085644	7204.043457
5129.777758	0.091626	1.085644	7285.224121
5129.778698	0.091578	1.085644	7371.307617
5129.779601	0.091641	1.085644	7454.059082
5130.823633	1.051699	1.102028	470.109589
5130.824600	1.465858	1.102028	1887.594360
5130.825514	1.446797	1.102028	3209.966797
5130.826413	1.411425	1.102028	4478.837402
5130.827355	1.375393	1.102028	5774.458008
5130.828289	0.910005	1.102028	6624.402344
5130.829181	0.106696	1.102028	6719.574707
5130.830075	0.091509	1.102028	6801.383789
5130.831018	0.091622	1.102028	6887.783691
5130.831921	0.091586	1.102028	6970.485352
5130.832823	0.091582	1.102028	7053.092285
5130.833710	0.091582	1.102028	7134.325684
5130.834653	0.091600	1.102028	7220.704590
5130.835562	0.091637	1.102028	7304.002441
5130.836451	0.091604	1.102028	7385.438477
5130.837390	0.091630	1.102028	7471.478516
5131.860432	1.042690	1.062260	462.954529
5131.861382	1.465547	1.062260	1855.224121
5131.862298	1.447222	1.062260	3180.879150
5131.863204	1.411443	1.062260	4459.646484
5131.864147	1.375433	1.062260	5756.680176
5131.865068	0.931392	1.062260	6614.491699
5131.865970	0.108160	1.062260	6712.052246
5131.866856	0.091538	1.062260	6793.154785
5131.867809	0.091652	1.062260	6880.498535
5131.868707	0.091611	1.062260	6962.765625
5131.869604	0.091659	1.062260	7044.983887
5131.870533	0.091674	1.062260	7130.148437
5131.871439	0.091644	1.062260	7213.178223
5131.872338	0.091582	1.062260	7295.510254
5131.873228	0.091604	1.062260	7377.037598
5131.874184	0.091626	1.062260	7464.631836
5132.918238	1.057712	1.103655	479.143738
5132.919141	1.464045	1.103655	1801.176758
5132.920037	1.448957	1.103655	3099.442627
5132.920992	1.412007	1.103655	4447.909180
5132.921905	1.376356	1.103655	5704.522461
5132.922816	0.990073	1.103655	6606.479004
5132.923756	0.115232	1.103655	6714.796875
5132.924653	0.091597	1.103655	6796.958984
5132.925565	0.091630	1.103655	6880.525391
5132.926458	0.091710	1.103655	6962.422363
5132.927401	0.091626	1.103655	7048.825684
5132.928304	0.091699	1.103655	7131.629883
5132.929203	0.091615	1.103655	7213.991699
5132.930118	0.091578	1.103655	7297.786133
5132.931014	0.091641	1.103655	7379.895996
5132.931969	0.091619	1.103655	7467.391602
5133.954518	1.052175	1.066228	469.270172
5133.955436	1.464148	1.066228	1813.357910
5133.956347	1.448536	1.066228	3132.974609
5133.957289	1.411769	1.066228	4462.860840
5133.958213	1.375748	1.066228	5734.052246
5133.959131	0.956100	1.066228	6611.751953
5133.960017	0.112163	1.066228	6711.128418
5133.960962	0.091600	1.066228	6797.690918
5133.961869	0.091641	1.066228	6880.809082
5133.962766	0.091593	1.066228	6962.967773
5133.963708	0.091600	1.066228	7049.255371
5133.964602	0.091527	1.066228	7131.080566
5133.965501	0.091615	1.066228	7213.442383
5133.966393	0.091659	1.066228	7295.202148
5133.967328	0.091688	1.066228	7380.930664
5133.968228	0.091633	1.066228	7463.400391
5135.013326	1.035359	1.084118	455.557922
5135.014251	1.462885	1.084118	1808.726074
5135.015202	1.447353	1.084118	3185.159180
5135.016100	1.411721	1.084118	4452.884766
5135.016997	1.376832	1.084118	5687.903320
5135.017956	0.949461	1.084118	6598.436035
5135.018869	0.108549	1.084118	6697.541016
5135.019761	0.091560	1.084118	6779.212402
5135.020686	0.091652	1.084118	6863.990234
5135.021588	0.091600	1.084118	6946.613770
5135.022484	0.091545	1.084118	7028.638672
5135.023371	0.091655	1.084118	7109.937012
5135.024315	0.091637	1.084118	7196.442383
5135.025226	0.091556	1.084118	7279.850098
5135.026118	0.091696	1.084118	7361.642578
5135.027010	0.091685	1.084118	7443.425293
5136.049098	1.031620	1.087227	449.786285
5136.050040	1.462742	1.087227	1827.688843
5136.050970	1.447434	1.087227	3173.802490
5136.051888	1.411410	1.087227	4469.476562
5136.052788	1.376217	1.087227	5708.071777
5136.053750	0.927242	1.087227	6600.079102
5136.054655	0.107772	1.087227	6697.612793
5136.055548	0.091505	1.087227	6779.326660
5136.056437	0.091582	1.087227	6860.743164
5136.057388	0.091615	1.087227	6947.869141
5136.058303	0.091512	1.087227	7031.603027
5136.059204	0.091608	1.087227	7114.141602
5136.060128	0.091600	1.087227	7198.780273
5136.061027	0.091644	1.087227	7281.168457
5136.061919	0.091527	1.087227	7362.810547
5136.062805	0.091593	1.087227	7443.961914
5137.107952	1.076320	1.085580	501.564911
5137.108864	1.464800	1.085580	1837.462280
5137.109766	1.448514	1.085580	3144.022217
5137.110707	1.411992	1.085580	4472.707031
5137.111620	1.375983	1.085580	5728.979004
5137.112531	0.973283	1.085580	6615.639648
5137.113418	0.114470	1.085580	6717.174805
5137.114366	0.091593	1.085580	6804.004883
5137.115266	0.091641	1.085580	6886.481445
5137.116157	0.091659	1.085580	6968.149414
5137.117085	0.091556	1.085580	7053.113770
5137.117993	0.091608	1.085580	7136.293457
5137.118894	0.091593	1.085580	7218.818848
5137.119787	0.091707	1.085580	7300.712891
5137.120711	0.091630	1.085580	7385.378906
5137.121634	0.091589	1.085580	7469.916016
5138.142669	1.033784	1.056987	456.932587
5138.143651	1.465496	1.056987	1896.049316
5138.144561	1.446467	1.056987	3212.334473
5138.145465	1.410817	1.056987	4487.712891
5138.146376	1.375397	1.056987	5740.699219
5138.147331	0.904230	1.056987	6604.238770
5138.148238	0.105132	1.056987	6699.593262
5138.149131	0.091615	1.056987	6781.405273
5138.150067	0.091600	1.056987	6867.143066
5138.150964	0.091739	1.056987	6949.433594
5138.151864	0.091600	1.056987	7031.874023
5138.152752	0.091641	1.056987	7113.250977
5138.153696	0.091743	1.056987	7199.856445
5138.154588	0.091725	1.056987	7281.674805
5138.155489	0.091600	1.056987	7364.206543
5138.156387	0.091582	1.056987	7446.447266
5139.202510	1.033857	1.099610	452.829559
5139.203443	1.462866	1.099610	1817.683716
5139.204364	1.448199	1.099610	3151.475342
5139.205274	1.412314	1.099610	4436.681641
5139.206169	1.377550	1.099610	5669.588867
5139.207132	0.966464	1.099610	6600.293457
5139.208036	0.111731	1.099610	6701.298340
5139.208937	0.091545	1.099610	6783.780762
5139.209825	0.091644	1.099610	6865.161133
5139.210780	0.091659	1.099610	6952.695312
5139.211685	0.091622	1.099610	7035.613281
5139.212572	0.091659	1.099610	7116.914551
5139.213529	0.091685	1.099610	7204.656738
5139.214428	0.091670	1.099610	7287.067871
5139.215327	0.091556	1.099610	7369.376953
5139.216218	0.091663	1.099610	7451.048340
